title:S11, start timestamp:1618378449.482874, stop timestamp:1618378560.107680, headset type:INSIGHT, headset serial:A2D202F3, headset firmware:932, channels:40, sampling rate:eeg_128;mot_64, samples:14167     , version:2.1, 
Timestamp,EEG.Counter,EEG.Interpolated,EEG.AF3,EEG.T7,EEG.Pz,EEG.T8,EEG.AF4,EEG.RawCq,EEG.Battery,EEG.BatteryPercent,MarkerIndex,MarkerType,MarkerValueInt,EEG.MarkerHardware,CQ.AF3,CQ.T7,CQ.Pz,CQ.T8,CQ.AF4,CQ.Overall,EQ.SampleRateQuality,EQ.OVERALL,EQ.AF3,EQ.T7,EQ.Pz,EQ.T8,EQ.AF4,MOT.CounterMems,MOT.InterpolatedMems,MOT.Q0,MOT.Q1,MOT.Q2,MOT.Q3,MOT.AccX,MOT.AccY,MOT.AccZ,MOT.MagX,MOT.MagY,MOT.MagZ
1618378449.482874,1.000000,0.000000,4251.282227,4232.820313,4233.846191,4158.974121,4239.487305,450.000000,3.000000,55.000000,,,,0.000000,4.000000,4.000000,4.000000,4.000000,4.000000,100.000000,,,,,,,,,,,,,,,,,,,
1618378449.490598,2.000000,0.000000,4254.358887,4240.512695,4248.717773,4163.077148,4235.384766,16214.000000,3.000000,55.000000,,,,0.000000,4.000000,4.000000,4.000000,4.000000,4.000000,100.000000,,,,,,,,1.000000,0.000000,0.180804,0.583008,0.170898,-0.773438,0.993667,0.060060,-0.149905,-12.853886,3.946063,59.928391
1618378449.498421,3.000000,0.000000,4255.897461,4248.205078,4255.897461,4172.820313,4240.000000,450.000000,3.000000,55.000000,,,,0.000000,4.000000,4.000000,4.000000,4.000000,4.000000,100.000000,,,,,,,,,,,,,,,,,,,
1618378449.506244,4.000000,0.000000,4252.820313,4244.102539,4251.794922,4173.333496,4244.615234,16211.000000,3.000000,55.000000,,,,0.000000,4.000000,4.000000,4.000000,4.000000,4.000000,100.000000,,,,,,,,2.000000,0.000000,0.180573,0.583008,0.171143,-0.773438,0.979507,0.075685,-0.155764,-12.944251,7.020748,58.481518
1618378449.514068,5.000000,0.000000,4251.794922,4240.512695,4248.717773,4172.820313,4243.077148,450.000000,3.000000,55.000000,,,,0.000000,4.000000,4.000000,4.000000,4.000000,4.000000,100.000000,,,,,,,,,,,,,,,,,,,
1618378449.521891,6.000000,0.000000,4256.410156,4245.641113,4253.333496,4172.307617,4240.000000,16186.000000,3.000000,55.000000,,,,0.000000,4.000000,4.000000,4.000000,4.000000,4.000000,100.000000,,,,,,,,3.000000,0.000000,0.180341,0.583008,0.171387,-0.773438,1.000504,0.057618,-0.141115,-12.965764,5.720519,59.153244
1618378449.529715,7.000000,0.000000,4261.025879,4247.179688,4255.384766,4167.692383,4242.051270,450.000000,3.000000,55.000000,,,,0.000000,4.000000,4.000000,4.000000,4.000000,4.000000,100.000000,,,,,,,,,,,,,,,,,,,
1618378449.537538,8.000000,0.000000,4261.538574,4240.000000,4249.743652,4168.205078,4249.743652,450.000000,3.000000,55.000000,,,,0.000000,4.000000,4.000000,4.000000,4.000000,4.000000,100.000000,,,,,,,,4.000000,0.000000,0.180665,0.582764,0.171875,-0.773438,0.984390,0.063478,-0.154299,-12.985126,4.669944,59.638161
1618378449.545362,9.000000,0.000000,4258.461426,4240.000000,4244.102539,4166.666504,4245.128418,16213.000000,3.000000,55.000000,,,,0.000000,4.000000,4.000000,4.000000,4.000000,4.000000,100.000000,,,,,,,,,,,,,,,,,,,
1618378449.553086,10.000000,0.000000,4256.410156,4246.153809,4238.974121,4167.692383,4237.436035,450.000000,3.000000,55.000000,,,,0.000000,4.000000,4.000000,4.000000,4.000000,4.000000,100.000000,,,,,,,,5.000000,0.000000,0.180433,0.582764,0.172119,-0.773438,0.994644,0.065431,-0.148440,-12.882920,3.664612,58.100685
1618378449.560910,11.000000,0.000000,4260.000000,4240.000000,4231.282227,4174.871582,4241.538574,16221.000000,3.000000,55.000000,,,,0.000000,4.000000,4.000000,4.000000,4.000000,4.000000,100.000000,,,,,,,,,,,,,,,,,,,
1618378449.568734,12.000000,0.000000,4263.077148,4236.922852,4230.256348,4175.897461,4247.179688,450.000000,3.000000,55.000000,,,,0.000000,4.000000,4.000000,4.000000,4.000000,4.000000,100.000000,,,,,,,,6.000000,0.000000,0.180199,0.582764,0.172363,-0.773438,1.000992,0.073732,-0.145022,-12.910566,6.707626,58.870304
1618378449.576559,13.000000,0.000000,4262.563965,4248.717773,4233.846191,4180.512695,4253.846191,450.000000,3.000000,55.000000,,,,0.000000,4.000000,4.000000,4.000000,4.000000,4.000000,100.000000,,,,,,,,,,,,,,,,,,,
1618378449.584383,14.000000,0.000000,4266.153809,4251.794922,4230.256348,4196.922852,4258.974121,450.000000,3.000000,55.000000,,,,0.000000,4.000000,4.000000,4.000000,4.000000,4.000000,100.000000,,,,,,,,7.000000,0.000000,0.180199,0.582764,0.172363,-0.773438,0.987808,0.061524,-0.151369,-12.875632,9.326709,57.469425
1618378449.592207,15.000000,0.000000,4268.717773,4240.000000,4217.948730,4197.948730,4253.846191,16221.000000,3.000000,55.000000,,,,0.000000,4.000000,4.000000,4.000000,4.000000,4.000000,100.000000,,,,,,,,,,,,,,,,,,,
1618378449.600031,16.000000,0.000000,4262.051270,4236.410156,4212.307617,4184.615234,4241.538574,0.000000,3.000000,55.000000,,,,0.000000,4.000000,4.000000,4.000000,4.000000,4.000000,100.000000,,,,,,,,8.000000,0.000000,0.180199,0.582764,0.172363,-0.773438,0.999039,0.057618,-0.147951,-12.963822,7.915515,58.122730
1618378449.607855,17.000000,0.000000,4256.922852,4237.436035,4208.205078,4177.436035,4237.436035,0.000000,3.000000,55.000000,,,,0.000000,4.000000,4.000000,4.000000,4.000000,4.000000,100.000000,,,,,,,,,,,,,,,,,,,
1618378449.615680,18.000000,0.000000,4266.153809,4234.358887,4198.974121,4173.333496,4244.102539,0.000000,3.000000,55.000000,,,,0.000000,4.000000,4.000000,4.000000,4.000000,4.000000,100.000000,,,,,,,,9.000000,0.000000,0.179966,0.582764,0.172607,-0.773438,0.994644,0.069337,-0.154299,-13.043194,10.234363,56.796608
1618378449.623404,19.000000,0.000000,4281.025879,4237.948730,4201.538574,4181.538574,4260.512695,0.000000,3.000000,55.000000,,,,0.000000,4.000000,4.000000,4.000000,4.000000,4.000000,100.000000,,,,,,,,,,,,,,,,,,,
1618378449.631228,20.000000,0.000000,4280.512695,4245.128418,4214.871582,4197.948730,4275.384766,0.000000,3.000000,55.000000,,,,0.000000,4.000000,4.000000,4.000000,4.000000,4.000000,100.000000,,,,,,,,10.000000,0.000000,0.179966,0.582764,0.172607,-0.773438,0.982437,0.076173,-0.157717,-13.114628,8.852034,57.696636
1618378449.639053,21.000000,0.000000,4264.615234,4245.641113,4213.846191,4196.410156,4266.153809,0.000000,3.000000,55.000000,,,,0.000000,4.000000,4.000000,4.000000,4.000000,4.000000,100.000000,,,,,,,,,,,,,,,,,,,
1618378449.646877,22.000000,0.000000,4263.077148,4243.589844,4198.461426,4185.128418,4247.179688,0.000000,3.000000,55.000000,,,,0.000000,4.000000,4.000000,4.000000,4.000000,4.000000,100.000000,,,,,,,,11.000000,0.000000,0.179966,0.582764,0.172607,-0.773438,0.995621,0.075685,-0.155764,-13.059288,7.368677,58.327217
1618378449.654702,23.000000,0.000000,4278.974121,4242.563965,4191.282227,4187.179688,4252.820313,0.000000,3.000000,55.000000,,,,0.000000,4.000000,4.000000,4.000000,4.000000,4.000000,100.000000,,,,,,,,,,,,,,,,,,,
1618378449.662526,24.000000,0.000000,4284.102539,4243.589844,4195.384766,4191.282227,4269.230957,0.000000,3.000000,55.000000,,,,0.000000,4.000000,4.000000,4.000000,4.000000,4.000000,100.000000,,,,,,,,12.000000,0.000000,0.179408,0.583008,0.172363,-0.773438,0.978531,0.065431,-0.161135,-13.129112,9.921655,59.014370
1618378449.670351,25.000000,0.000000,4272.307617,4245.128418,4192.820313,4187.179688,4265.641113,0.000000,3.000000,55.000000,,,,0.000000,4.000000,4.000000,4.000000,4.000000,4.000000,100.000000,,,,,,,,,,,,,,,,,,,
1618378449.678175,26.000000,0.000000,4265.641113,4242.563965,4183.077148,4182.051270,4255.897461,0.000000,3.000000,55.000000,,,,0.000000,4.000000,4.000000,4.000000,4.000000,4.000000,100.000000,,,,,,,,13.000000,0.000000,0.179408,0.583008,0.172363,-0.773438,0.994644,0.072267,-0.161135,-13.191955,8.450966,59.692623
1618378449.685999,27.000000,0.000000,4268.205078,4240.000000,4184.102539,4190.256348,4254.358887,0.000000,3.000000,55.000000,,,,0.000000,4.000000,4.000000,4.000000,4.000000,4.000000,100.000000,,,,,,,,,,,,,,,,,,,
1618378449.693724,28.000000,0.000000,4269.230957,4239.487305,4190.256348,4199.487305,4247.179688,0.000000,3.000000,55.000000,,,,0.000000,4.000000,4.000000,4.000000,4.000000,4.000000,100.000000,,,,,,,,14.000000,0.000000,0.179408,0.583008,0.172363,-0.773438,0.996597,0.065431,-0.157229,-13.069066,11.015346,58.149700
1618378449.701549,29.000000,0.000000,4268.205078,4235.897461,4185.128418,4192.820313,4243.077148,0.000000,3.000000,55.000000,,,,0.000000,4.000000,4.000000,4.000000,4.000000,4.000000,100.000000,,,,,,,,,,,,,,,,,,,
1618378449.709374,30.000000,0.000000,4266.153809,4234.358887,4186.153809,4187.692383,4254.358887,0.000000,3.000000,55.000000,,,,0.000000,4.000000,4.000000,4.000000,4.000000,4.000000,100.000000,,,,,,,,15.000000,0.000000,0.179408,0.583008,0.172363,-0.773438,0.980484,0.069337,-0.150393,-13.018282,9.315657,58.854603
1618378449.717198,31.000000,0.000000,4264.615234,4236.410156,4196.410156,4191.282227,4263.589844,0.000000,3.000000,55.000000,,,,0.000000,4.000000,4.000000,4.000000,4.000000,4.000000,100.000000,,,,,,,,,,,,,,,,,,,
1618378449.725023,32.000000,0.000000,4262.563965,4231.282227,4192.820313,4180.512695,4254.871582,0.000000,3.000000,55.000000,,,,0.000000,4.000000,4.000000,4.000000,4.000000,4.000000,100.000000,,,,,,,,16.000000,0.000000,0.180199,0.582764,0.172363,-0.773438,0.998062,0.065431,-0.147463,-13.032393,11.793568,57.455296
1618378449.732848,33.000000,0.000000,4261.538574,4224.102539,4180.000000,4163.589844,4244.615234,0.000000,3.000000,55.000000,,,,0.000000,4.000000,4.000000,4.000000,4.000000,4.000000,100.000000,,,,,,,,,,,,,,,,,,,
1618378449.740672,34.000000,0.000000,4262.563965,4223.077148,4179.487305,4169.230957,4238.974121,0.000000,3.000000,55.000000,,,,0.000000,4.000000,4.000000,4.000000,4.000000,4.000000,100.000000,,,,,,,,17.000000,0.000000,0.179408,0.583008,0.172363,-0.773438,1.003922,0.059571,-0.151858,-12.925460,10.135688,58.289455
1618378449.748497,35.000000,0.000000,4263.589844,4224.615234,4184.102539,4178.974121,4239.487305,0.000000,3.000000,55.000000,,,,0.000000,4.000000,4.000000,4.000000,4.000000,4.000000,100.000000,,,,,,,,,,,,,,,,,,,
1618378449.756321,36.000000,0.000000,4268.717773,4228.205078,4184.102539,4181.025879,4250.256348,0.000000,3.000000,55.000000,,,,0.000000,4.000000,4.000000,4.000000,4.000000,4.000000,100.000000,,,,,,,,18.000000,0.000000,0.179408,0.583008,0.172363,-0.773438,0.994156,0.063966,-0.162112,-12.802423,7.300714,59.715870
1618378449.764046,37.000000,0.000000,4276.922852,4230.769043,4188.205078,4190.256348,4257.436035,0.000000,3.000000,55.000000,,,,0.000000,4.000000,4.000000,4.000000,4.000000,4.000000,100.000000,,,,,,,,,,,,,,,,,,,
1618378449.771871,38.000000,0.000000,4284.615234,4230.769043,4195.384766,4200.512695,4253.333496,0.000000,3.000000,55.000000,,,,0.000000,4.000000,4.000000,4.000000,4.000000,4.000000,100.000000,,,,,,,,19.000000,0.000000,0.179408,0.583008,0.172363,-0.773438,1.006851,0.056641,-0.148440,-13.017564,6.211750,60.144527
1618378449.779696,39.000000,0.000000,4283.077148,4233.333496,4193.333496,4195.897461,4251.282227,0.000000,3.000000,55.000000,,,,0.000000,4.000000,4.000000,4.000000,4.000000,4.000000,100.000000,,,,,,,,,,,,,,,,,,,
1618378449.787521,40.000000,0.000000,4268.205078,4236.410156,4182.051270,4183.077148,4248.205078,0.000000,3.000000,55.000000,,,,0.000000,4.000000,4.000000,4.000000,4.000000,4.000000,100.000000,,,,,,,,20.000000,0.000000,0.179408,0.583008,0.172363,-0.773438,0.983902,0.060060,-0.165042,-13.091561,9.000051,58.616226
1618378449.795346,41.000000,0.000000,4253.333496,4235.897461,4174.871582,4179.487305,4237.948730,0.000000,3.000000,55.000000,,,,0.000000,4.000000,4.000000,4.000000,4.000000,4.000000,100.000000,,,,,,,,,,,,,,,,,,,
1618378449.803171,42.000000,0.000000,4255.384766,4235.384766,4176.410156,4180.000000,4231.794922,0.000000,3.000000,55.000000,,,,0.000000,4.000000,4.000000,4.000000,4.000000,4.000000,100.000000,,,,,,,,21.000000,0.000000,0.180457,0.583008,0.172363,-0.773193,1.003922,0.069337,-0.154299,-13.158158,7.621523,59.214664
1618378449.810996,43.000000,0.000000,4259.487305,4231.282227,4175.384766,4174.358887,4234.358887,0.000000,3.000000,55.000000,,,,0.000000,4.000000,4.000000,4.000000,4.000000,4.000000,100.000000,,,,,,,,,,,,,,,,,,,
1618378449.818821,44.000000,0.000000,4256.410156,4225.128418,4169.230957,4170.256348,4240.512695,0.000000,3.000000,55.000000,,,,0.000000,4.000000,4.000000,4.000000,4.000000,4.000000,100.000000,,,,,,,,22.000000,0.000000,0.180224,0.583008,0.172607,-0.773193,0.992691,0.054688,-0.152346,-13.038650,10.029585,59.813072
1618378449.826646,45.000000,0.000000,4260.512695,4234.358887,4172.307617,4178.974121,4244.102539,0.000000,3.000000,55.000000,,,,0.000000,4.000000,4.000000,4.000000,4.000000,4.000000,100.000000,,,,,,,,,,,,,,,,,,,
1618378449.834370,46.000000,0.000000,4260.512695,4243.589844,4181.025879,4183.589844,4234.871582,0.000000,3.000000,55.000000,,,,0.000000,4.000000,4.000000,4.000000,4.000000,4.000000,100.000000,,,,,,,,23.000000,0.000000,0.179432,0.583252,0.172607,-0.773193,0.987320,0.074708,-0.133303,-13.170354,12.376287,58.497364
1618378449.842194,47.000000,0.000000,4254.871582,4232.307617,4182.051270,4177.436035,4230.256348,0.000000,3.000000,55.000000,,,,0.000000,4.000000,4.000000,4.000000,4.000000,4.000000,100.000000,,,,,,,,,,,,,,,,,,,
1618378449.850018,48.000000,0.000000,4264.102539,4225.641113,4187.692383,4182.051270,4247.179688,0.000000,3.000000,55.000000,,,,0.000000,4.000000,4.000000,4.000000,4.000000,4.000000,100.000000,,,,,,,,24.000000,0.000000,0.179432,0.583252,0.172607,-0.773193,0.993179,0.061524,-0.160159,-13.229072,10.600320,59.167503
1618378449.857842,49.000000,0.000000,4273.846191,4233.333496,4197.436035,4188.717773,4254.871582,0.000000,3.000000,55.000000,,,,0.000000,4.000000,4.000000,4.000000,4.000000,4.000000,100.000000,,,,,,,,,,,,,,,,,,,
1618378449.865667,50.000000,0.000000,4262.563965,4231.282227,4194.871582,4183.589844,4237.436035,0.000000,3.000000,55.000000,,,,0.000000,4.000000,4.000000,4.000000,4.000000,4.000000,100.000000,,,,,,,,25.000000,0.000000,0.179432,0.583252,0.172607,-0.773193,0.993667,0.073732,-0.157717,-13.341733,12.949763,57.796719
1618378449.873491,51.000000,0.000000,4247.179688,4223.077148,4186.153809,4171.794922,4218.461426,0.000000,3.000000,55.000000,,,,0.000000,4.000000,4.000000,4.000000,4.000000,4.000000,100.000000,,,,,,,,,,,,,,,,,,,
1618378449.881315,52.000000,0.000000,4235.384766,4223.589844,4180.000000,4153.846191,4206.666504,0.000000,3.000000,55.000000,,,,0.000000,4.000000,4.000000,4.000000,4.000000,4.000000,100.000000,,,,,,,,26.000000,0.000000,0.179197,0.583252,0.172852,-0.773193,1.002945,0.055665,-0.138674,-13.383313,11.056634,58.536922
1618378449.889139,53.000000,0.000000,4226.666504,4220.512695,4168.717773,4147.692383,4205.128418,0.000000,3.000000,55.000000,,,,0.000000,4.000000,4.000000,4.000000,4.000000,4.000000,100.000000,,,,,,,,,,,,,,,,,,,
1618378449.896963,54.000000,0.000000,4231.282227,4210.769043,4160.512695,4161.025879,4212.307617,0.000000,3.000000,55.000000,,,,0.000000,4.000000,4.000000,4.000000,4.000000,4.000000,100.000000,,,,,,,,27.000000,0.000000,0.179455,0.583496,0.172852,-0.772949,0.987320,0.070802,-0.143557,-13.360920,13.240815,59.083473
1618378449.904688,55.000000,0.000000,4228.205078,4200.512695,4157.436035,4155.384766,4204.615234,0.000000,3.000000,55.000000,,,,0.000000,4.000000,4.000000,4.000000,4.000000,4.000000,100.000000,1.000000,100.000000,4.000000,4.000000,4.000000,4.000000,4.000000,,,,,,,,,,,,
1618378449.912512,56.000000,0.000000,4204.102539,4192.307617,4148.717773,4128.717773,4181.025879,0.000000,3.000000,55.000000,,,,0.000000,4.000000,4.000000,4.000000,4.000000,4.000000,100.000000,,,,,,,,28.000000,0.000000,0.179432,0.583252,0.172607,-0.773193,0.993667,0.073732,-0.157717,-13.280951,15.266395,57.661282
1618378449.920336,57.000000,0.000000,4200.000000,4200.512695,4152.820313,4131.282227,4184.102539,0.000000,3.000000,55.000000,,,,0.000000,4.000000,4.000000,4.000000,4.000000,4.000000,100.000000,,,,,,,,,,,,,,,,,,,
1618378449.928160,58.000000,0.000000,4229.743652,4222.051270,4175.897461,4164.102539,4216.410156,0.000000,3.000000,55.000000,,,,0.000000,4.000000,4.000000,4.000000,4.000000,4.000000,100.000000,,,,,,,,29.000000,0.000000,0.179455,0.583496,0.172852,-0.772949,0.987320,0.070802,-0.143557,-13.268794,17.029600,58.295395
1618378449.935984,59.000000,0.000000,4254.871582,4229.230957,4190.769043,4184.615234,4232.820313,0.000000,3.000000,55.000000,,,,0.000000,4.000000,4.000000,4.000000,4.000000,4.000000,100.000000,,,,,,,,,,,,,,,,,,,
1618378449.943809,60.000000,0.000000,4254.871582,4226.153809,4189.230957,4183.077148,4228.205078,0.000000,3.000000,55.000000,,,,0.000000,4.000000,4.000000,4.000000,4.000000,4.000000,100.000000,,,,,,,,30.000000,0.000000,0.180013,0.583252,0.173096,-0.772949,0.988296,0.064454,-0.155764,-13.257853,14.848117,58.925915
1618378449.951633,61.000000,0.000000,4253.846191,4224.102539,4183.589844,4177.948730,4228.717773,0.000000,3.000000,55.000000,,,,0.000000,4.000000,4.000000,4.000000,4.000000,4.000000,100.000000,,,,,,,,,,,,,,,,,,,
1618378449.959457,62.000000,0.000000,4260.000000,4221.025879,4182.051270,4180.512695,4236.410156,0.000000,3.000000,55.000000,,,,0.000000,4.000000,4.000000,4.000000,4.000000,4.000000,100.000000,,,,,,,,31.000000,0.000000,0.179220,0.583496,0.173096,-0.772949,0.995621,0.081544,-0.147463,-13.248005,12.944598,59.553200
1618378449.967182,63.000000,0.000000,4259.487305,4221.025879,4183.077148,4185.128418,4235.384766,0.000000,3.000000,55.000000,,,,0.000000,4.000000,4.000000,4.000000,4.000000,4.000000,100.000000,,,,,,,,,,,,,,,,,,,
1618378449.975007,64.000000,0.000000,4256.922852,4224.102539,4182.563965,4183.589844,4237.436035,450.000000,3.000000,55.000000,,,,0.000000,4.000000,4.000000,4.000000,4.000000,4.000000,100.000000,,,,,,,,32.000000,0.000000,0.178984,0.583496,0.173340,-0.772949,0.985855,0.069337,-0.154788,-13.239142,15.119430,60.117756
1618378449.982832,65.000000,0.000000,4262.563965,4223.589844,4177.948730,4177.948730,4242.563965,450.000000,3.000000,55.000000,,,,0.000000,4.000000,4.000000,4.000000,4.000000,4.000000,100.000000,,,,,,,,,,,,,,,,,,,
1618378449.990657,66.000000,0.000000,4263.589844,4227.179688,4178.974121,4170.256348,4233.333496,16209.000000,3.000000,55.000000,,,,0.000000,4.000000,4.000000,4.000000,4.000000,4.000000,100.000000,,,,,,,,33.000000,0.000000,0.180035,0.583496,0.173340,-0.772705,0.998550,0.074220,-0.145510,-13.111536,13.128963,60.566040
1618378449.998482,67.000000,0.000000,4251.282227,4233.333496,4182.563965,4166.666504,4218.461426,450.000000,3.000000,55.000000,,,,0.000000,4.000000,4.000000,4.000000,4.000000,4.000000,100.000000,,,,,,,,,,,,,,,,,,,
1618378450.006306,68.000000,0.000000,4243.589844,4229.743652,4180.512695,4169.230957,4216.410156,16224.000000,3.000000,55.000000,,,,0.000000,4.000000,4.000000,4.000000,4.000000,4.000000,100.000000,,,,,,,,34.000000,0.000000,0.180035,0.583496,0.173340,-0.772705,0.984390,0.056153,-0.137697,-13.056505,11.337544,60.909679
1618378450.014131,69.000000,0.000000,4249.230957,4228.717773,4180.512695,4169.743652,4221.025879,450.000000,3.000000,55.000000,,,,0.000000,4.000000,4.000000,4.000000,4.000000,4.000000,100.000000,,,,,,,,,,,,,,,,,,,
1618378450.021956,70.000000,0.000000,4252.820313,4233.846191,4186.153809,4170.256348,4220.512695,16174.000000,3.000000,55.000000,,,,0.000000,4.000000,4.000000,4.000000,4.000000,4.000000,100.000000,,,,,,,,35.000000,0.000000,0.180035,0.583496,0.173340,-0.772705,1.000504,0.055665,-0.161624,-13.006977,9.665451,61.278770
1618378450.029781,71.000000,0.000000,4254.871582,4234.871582,4192.820313,4177.948730,4230.256348,450.000000,3.000000,55.000000,,,,0.000000,4.000000,4.000000,4.000000,4.000000,4.000000,100.000000,,,,,,,,,,,,,,,,,,,
1618378450.037506,72.000000,0.000000,4263.589844,4238.974121,4197.948730,4188.205078,4242.051270,450.000000,3.000000,55.000000,,,,0.000000,4.000000,4.000000,4.000000,4.000000,4.000000,100.000000,,,,,,,,36.000000,0.000000,0.179005,0.583740,0.173584,-0.772705,0.998550,0.078614,-0.147951,-12.962402,8.280199,61.610954
1618378450.045331,73.000000,0.000000,4268.717773,4247.179688,4203.589844,4193.846191,4245.641113,16220.000000,3.000000,55.000000,,,,0.000000,4.000000,4.000000,4.000000,4.000000,4.000000,100.000000,,,,,,,,,,,,,,,,,,,
1618378450.053155,74.000000,0.000000,4266.666504,4246.666504,4204.615234,4196.922852,4247.179688,450.000000,3.000000,55.000000,,,,0.000000,4.000000,4.000000,4.000000,4.000000,4.000000,100.000000,,,,,,,,37.000000,0.000000,0.179262,0.583984,0.173584,-0.772461,1.003922,0.061036,-0.145998,-13.101730,6.913841,61.969734
1618378450.060980,75.000000,0.000000,4265.128418,4238.974121,4196.922852,4192.820313,4241.025879,16228.000000,3.000000,55.000000,,,,0.000000,4.000000,4.000000,4.000000,4.000000,4.000000,100.000000,,,,,,,,,,,,,,,,,,,
1618378450.068805,76.000000,0.000000,4265.641113,4235.897461,4193.333496,4182.563965,4234.871582,450.000000,3.000000,55.000000,,,,0.000000,4.000000,4.000000,4.000000,4.000000,4.000000,100.000000,,,,,,,,38.000000,0.000000,0.179498,0.583984,0.173340,-0.772461,0.986831,0.058595,-0.150393,-13.047680,9.512301,60.258911
1618378450.076629,77.000000,0.000000,4258.974121,4235.897461,4194.358887,4180.000000,4236.922852,450.000000,3.000000,55.000000,,,,0.000000,4.000000,4.000000,4.000000,4.000000,4.000000,100.000000,,,,,,,,,,,,,,,,,,,
1618378450.084454,78.000000,0.000000,4248.205078,4234.358887,4189.743652,4175.897461,4240.512695,450.000000,3.000000,55.000000,,,,0.000000,4.000000,4.000000,4.000000,4.000000,4.000000,100.000000,,,,,,,,39.000000,0.000000,0.179754,0.584229,0.173340,-0.772217,0.998062,0.071290,-0.145510,-12.939219,7.962918,60.693081
1618378450.092279,79.000000,0.000000,4253.333496,4237.436035,4185.641113,4163.589844,4246.153809,16228.000000,3.000000,55.000000,,,,0.000000,4.000000,4.000000,4.000000,4.000000,4.000000,100.000000,,,,,,,,,,,,,,,,,,,
1618378450.100002,80.000000,0.000000,4265.641113,4244.102539,4189.743652,4171.794922,4255.897461,450.000000,3.000000,55.000000,,,,0.000000,4.000000,4.000000,4.000000,4.000000,4.000000,100.000000,,,,,,,,40.000000,0.000000,0.179195,0.584473,0.173096,-0.772217,0.997574,0.070314,-0.150881,-12.961236,6.747919,61.263279
1618378450.107826,81.000000,0.000000,4266.666504,4245.128418,4195.384766,4203.077148,4260.000000,450.000000,3.000000,55.000000,,,,0.000000,4.000000,4.000000,4.000000,4.000000,4.000000,100.000000,,,,,,,,,,,,,,,,,,,
1618378450.115650,82.000000,0.000000,4270.256348,4248.717773,4201.538574,4216.410156,4260.000000,450.000000,3.000000,55.000000,,,,0.000000,4.000000,4.000000,4.000000,4.000000,4.000000,100.000000,,,,,,,,41.000000,0.000000,0.180244,0.584473,0.173096,-0.771973,0.995621,0.081544,-0.145022,-12.801604,5.474973,59.682919
1618378450.123473,83.000000,0.000000,4274.358887,4252.307617,4212.820313,4206.153809,4268.717773,16228.000000,3.000000,55.000000,,,,0.000000,4.000000,4.000000,4.000000,4.000000,4.000000,100.000000,,,,,,,,,,,,,,,,,,,
1618378450.131297,84.000000,0.000000,4261.538574,4242.563965,4226.666504,4199.487305,4265.641113,450.000000,3.000000,55.000000,,,,0.000000,4.000000,4.000000,4.000000,4.000000,4.000000,100.000000,,,,,,,,42.000000,0.000000,0.179450,0.584717,0.173096,-0.771973,0.992691,0.080568,-0.146975,-12.897197,4.568583,60.055054
1618378450.139121,85.000000,0.000000,4249.230957,4229.230957,4233.846191,4190.256348,4244.615234,450.000000,3.000000,55.000000,,,,0.000000,4.000000,4.000000,4.000000,4.000000,4.000000,100.000000,,,,,,,,,,,,,,,,,,,
1618378450.146945,86.000000,0.000000,4250.769043,4231.794922,4235.384766,4178.461426,4236.410156,450.000000,3.000000,55.000000,,,,0.000000,4.000000,4.000000,4.000000,4.000000,4.000000,100.000000,,,,,,,,43.000000,0.000000,0.179450,0.584717,0.173096,-0.771973,1.002945,0.063966,-0.137697,-12.923415,3.812648,60.509609
1618378450.154669,87.000000,0.000000,4249.743652,4236.410156,4236.922852,4178.974121,4241.538574,16228.000000,3.000000,55.000000,,,,0.000000,4.000000,4.000000,4.000000,4.000000,4.000000,100.000000,,,,,,,,,,,,,,,,,,,
1618378450.162493,88.000000,0.000000,4255.897461,4234.871582,4237.948730,4188.717773,4245.128418,450.000000,3.000000,55.000000,,,,0.000000,4.000000,4.000000,4.000000,4.000000,4.000000,100.000000,,,,,,,,44.000000,0.000000,0.180497,0.584717,0.173096,-0.771729,0.993179,0.050782,-0.142580,-12.947012,2.952861,60.978523
1618378450.170317,89.000000,0.000000,4271.282227,4240.512695,4237.948730,4195.384766,4250.769043,450.000000,3.000000,55.000000,,,,0.000000,4.000000,4.000000,4.000000,4.000000,4.000000,100.000000,,,,,,,,,,,,,,,,,,,
1618378450.178141,90.000000,0.000000,4270.769043,4240.512695,4240.000000,4190.769043,4253.846191,450.000000,3.000000,55.000000,,,,0.000000,4.000000,4.000000,4.000000,4.000000,4.000000,100.000000,,,,,,,,45.000000,0.000000,0.179704,0.584961,0.173096,-0.771729,1.004410,0.074708,-0.147463,-13.028064,2.298682,61.221100
1618378450.185966,91.000000,0.000000,4269.230957,4235.897461,4237.948730,4187.692383,4251.282227,16228.000000,3.000000,55.000000,,,,0.000000,4.000000,4.000000,4.000000,4.000000,4.000000,100.000000,,,,,,,,,,,,,,,,,,,
1618378450.193790,92.000000,0.000000,4278.461426,4244.102539,4225.128418,4197.436035,4255.897461,450.000000,3.000000,55.000000,,,,0.000000,4.000000,4.000000,4.000000,4.000000,4.000000,100.000000,,,,,,,,46.000000,0.000000,0.180516,0.584961,0.173340,-0.771484,0.992691,0.072755,-0.146975,-13.041196,1.650107,61.499233
1618378450.201614,93.000000,0.000000,4277.436035,4254.358887,4210.256348,4200.000000,4260.000000,450.000000,3.000000,55.000000,,,,0.000000,4.000000,4.000000,4.000000,4.000000,4.000000,100.000000,,,,,,,,,,,,,,,,,,,
1618378450.209438,94.000000,0.000000,4269.743652,4244.615234,4193.846191,4182.051270,4253.333496,450.000000,3.000000,55.000000,,,,0.000000,4.000000,4.000000,4.000000,4.000000,4.000000,100.000000,,,,,,,,47.000000,0.000000,0.180750,0.584961,0.173096,-0.771484,0.983413,0.059571,-0.133303,-13.053014,0.946758,61.869186
1618378450.217163,95.000000,0.000000,4275.384766,4233.333496,4183.589844,4175.384766,4259.487305,16228.000000,3.000000,55.000000,,,,0.000000,4.000000,4.000000,4.000000,4.000000,4.000000,100.000000,,,,,,,,,,,,,,,,,,,
1618378450.224989,96.000000,0.000000,4281.025879,4241.538574,4184.615234,4195.384766,4269.230957,450.000000,3.000000,55.000000,,,,0.000000,4.000000,4.000000,4.000000,4.000000,4.000000,100.000000,,,,,,,,48.000000,0.000000,0.180750,0.584961,0.173096,-0.771484,1.000992,0.050782,-0.142092,-13.063651,4.261558,60.228233
1618378450.232814,97.000000,0.000000,4276.410156,4251.282227,4184.615234,4207.692383,4266.153809,450.000000,3.000000,55.000000,,,,0.000000,4.000000,4.000000,4.000000,4.000000,4.000000,100.000000,,,,,,,,,,,,,,,,,,,
1618378450.240639,98.000000,0.000000,4273.333496,4247.692383,4180.512695,4189.743652,4263.589844,450.000000,3.000000,55.000000,,,,0.000000,4.000000,4.000000,4.000000,4.000000,4.000000,100.000000,,,,,,,,49.000000,0.000000,0.179958,0.585205,0.173096,-0.771484,0.999527,0.058106,-0.150393,-13.133039,7.244878,58.751377
1618378450.248464,99.000000,0.000000,4272.820313,4242.563965,4183.589844,4176.922852,4260.512695,16228.000000,3.000000,55.000000,,,,0.000000,4.000000,4.000000,4.000000,4.000000,4.000000,100.000000,,,,,,,,,,,,,,,,,,,
1618378450.256289,100.000000,0.000000,4276.410156,4246.153809,4188.717773,4194.358887,4261.025879,450.000000,3.000000,55.000000,,,,0.000000,4.000000,4.000000,4.000000,4.000000,4.000000,100.000000,,,,,,,,50.000000,0.000000,0.179722,0.585205,0.173340,-0.771484,1.001968,0.061524,-0.154788,-12.956227,6.101682,57.362392
1618378450.264114,101.000000,0.000000,4281.538574,4250.256348,4186.153809,4205.128418,4267.179688,450.000000,3.000000,55.000000,,,,0.000000,4.000000,4.000000,4.000000,4.000000,4.000000,100.000000,,,,,,,,,,,,,,,,,,,
1618378450.271939,102.000000,0.000000,4273.846191,4247.692383,4184.102539,4194.871582,4262.563965,450.000000,3.000000,55.000000,,,,0.000000,4.000000,4.000000,4.000000,4.000000,4.000000,100.000000,,,,,,,,51.000000,0.000000,0.179722,0.585205,0.173340,-0.771484,0.988785,0.072267,-0.137697,-12.856912,5.072807,58.205845
1618378450.279764,103.000000,0.000000,4262.051270,4237.948730,4185.641113,4192.820313,4248.717773,16228.000000,3.000000,55.000000,,,,0.000000,4.000000,4.000000,4.000000,4.000000,4.000000,100.000000,,,,,,,,,,,,,,,,,,,
1618378450.287490,104.000000,0.000000,4269.743652,4235.897461,4187.692383,4201.025879,4251.282227,450.000000,3.000000,55.000000,,,,0.000000,4.000000,4.000000,4.000000,4.000000,4.000000,100.000000,,,,,,,,52.000000,0.000000,0.180767,0.585205,0.173340,-0.771240,1.005875,0.065431,-0.140627,-13.006789,7.975002,57.050858
1618378450.295315,105.000000,0.000000,4284.102539,4245.641113,4190.769043,4202.051270,4265.128418,450.000000,3.000000,55.000000,,,,0.000000,4.000000,4.000000,4.000000,4.000000,4.000000,100.000000,,,,,,,,,,,,,,,,,,,
1618378450.303140,106.000000,0.000000,4284.615234,4248.717773,4194.358887,4199.487305,4263.589844,450.000000,3.000000,55.000000,,,,0.000000,4.000000,4.000000,4.000000,4.000000,4.000000,100.000000,,,,,,,,53.000000,0.000000,0.180767,0.585205,0.173340,-0.771240,0.983413,0.068849,-0.144045,-12.962234,6.818609,57.805832
1618378450.310965,107.000000,0.000000,4276.922852,4249.743652,4196.922852,4198.974121,4258.461426,16228.000000,3.000000,55.000000,,,,0.000000,4.000000,4.000000,4.000000,4.000000,4.000000,100.000000,,,,,,,,,,,,,,,,,,,
1618378450.318790,108.000000,0.000000,4272.307617,4252.820313,4198.461426,4192.307617,4262.563965,450.000000,3.000000,55.000000,,,,0.000000,4.000000,4.000000,4.000000,4.000000,4.000000,100.000000,,,,,,,,54.000000,0.000000,0.180533,0.585205,0.173584,-0.771240,0.990738,0.062013,-0.142580,-13.041763,9.606040,56.750664
1618378450.326615,109.000000,0.000000,4276.410156,4247.692383,4197.436035,4188.205078,4272.820313,450.000000,3.000000,55.000000,,,,0.000000,4.000000,4.000000,4.000000,4.000000,4.000000,100.000000,,,,,,,,,,,,,,,,,,,
1618378450.334441,110.000000,0.000000,4285.128418,4243.077148,4197.948730,4189.743652,4274.871582,450.000000,3.000000,55.000000,,,,0.000000,4.000000,4.000000,4.000000,4.000000,4.000000,100.000000,,,,,,,,55.000000,0.000000,0.180533,0.585205,0.173584,-0.771240,0.994156,0.060060,-0.154788,-12.933894,8.166913,57.655285
1618378450.342266,111.000000,0.000000,4288.205078,4248.717773,4200.000000,4190.769043,4274.871582,16228.000000,3.000000,55.000000,,,,0.000000,4.000000,4.000000,4.000000,4.000000,4.000000,100.000000,,,,,,,,,,,,,,,,,,,
1618378450.350091,112.000000,0.000000,4285.641113,4246.666504,4200.512695,4192.307617,4278.974121,450.000000,3.000000,55.000000,,,,0.000000,4.000000,4.000000,4.000000,4.000000,4.000000,100.000000,,,,,,,,56.000000,0.000000,0.180533,0.585205,0.173584,-0.771240,0.988785,0.076661,-0.130861,-12.956443,6.991329,58.170372
1618378450.357816,113.000000,0.000000,4284.615234,4238.461426,4198.461426,4197.948730,4275.384766,450.000000,3.000000,55.000000,,,,0.000000,4.000000,4.000000,4.000000,4.000000,4.000000,100.000000,,,,,,,,,,,,,,,,,,,
1618378450.365642,114.000000,0.000000,4281.538574,4241.538574,4196.922852,4201.538574,4271.282227,450.000000,3.000000,55.000000,,,,0.000000,4.000000,4.000000,4.000000,4.000000,4.000000,100.000000,,,,,,,,57.000000,0.000000,0.180533,0.585205,0.173584,-0.771240,0.995132,0.086915,-0.146487,-13.036552,9.641857,56.899303
1618378450.373467,115.000000,0.000000,4281.538574,4248.205078,4197.948730,4195.384766,4275.384766,16228.000000,3.000000,55.000000,,,,0.000000,4.000000,4.000000,4.000000,4.000000,4.000000,100.000000,,,,,,,,,,,,,,,,,,,
1618378450.381292,116.000000,0.000000,4285.128418,4248.205078,4203.077148,4191.282227,4276.922852,450.000000,3.000000,55.000000,,,,0.000000,4.000000,4.000000,4.000000,4.000000,4.000000,100.000000,,,,,,,,58.000000,0.000000,0.180533,0.585205,0.173584,-0.771240,0.994156,0.060060,-0.154788,-13.108650,11.967516,55.815155
1618378450.389118,117.000000,0.000000,4282.563965,4245.641113,4207.692383,4195.897461,4273.333496,450.000000,3.000000,55.000000,,,,0.000000,4.000000,4.000000,4.000000,4.000000,4.000000,100.000000,,,,,,,,,,,,,,,,,,,
1618378450.396943,118.000000,1.000000,4281.858887,4245.641113,4208.077148,4195.641113,4272.500000,450.000000,3.000000,55.000000,,,,0.000000,4.000000,4.000000,4.000000,4.000000,4.000000,100.000000,,,,,,,,59.000000,1.000000,0.000000,0.585205,0.173584,-0.771240,0.997281,0.061134,0.000000,0.000000,0.000000,0.000000
1618378450.404769,119.000000,1.000000,4281.153809,4245.641113,4208.461426,4195.384766,4271.666504,450.000000,3.000000,55.000000,,,,0.000000,4.000000,4.000000,4.000000,4.000000,4.000000,100.000000,0.992188,100.000000,4.000000,4.000000,4.000000,4.000000,4.000000,,,,,,,,,,,,
1618378450.412594,120.000000,1.000000,4280.448730,4245.641113,4208.846191,4195.128418,4270.833496,450.000000,3.000000,55.000000,,,,0.000000,4.000000,4.000000,4.000000,4.000000,4.000000,100.000000,,,,,,,,60.000000,1.000000,0.000000,0.585205,0.173584,-0.771240,1.000406,0.062208,0.000000,0.000000,0.000000,0.000000
1618378450.420419,121.000000,1.000000,4279.743652,4245.641113,4209.230957,4194.871582,4270.000000,450.000000,3.000000,55.000000,,,,0.000000,4.000000,4.000000,4.000000,4.000000,4.000000,100.000000,,,,,,,,,,,,,,,,,,,
1618378450.428245,122.000000,1.000000,4279.038574,4245.641113,4209.615234,4194.615234,4269.166504,450.000000,3.000000,55.000000,,,,0.000000,4.000000,4.000000,4.000000,4.000000,4.000000,100.000000,,,,,,,,61.000000,1.000000,0.000000,0.585205,0.173584,-0.771240,1.003531,0.063282,0.000000,0.000000,0.000000,0.000000
1618378450.436070,123.000000,1.000000,4278.333496,4245.641113,4210.000000,4194.358887,4268.333496,450.000000,3.000000,55.000000,,,,0.000000,4.000000,4.000000,4.000000,4.000000,4.000000,100.000000,,,,,,,,,,,,,,,,,,,
1618378450.443895,124.000000,1.000000,4277.628418,4245.641113,4210.384766,4194.102539,4267.500000,450.000000,3.000000,55.000000,,,,0.000000,4.000000,4.000000,4.000000,4.000000,4.000000,100.000000,,,,,,,,62.000000,1.000000,0.000000,0.585205,0.173584,-0.771240,1.006656,0.064356,0.000000,0.000000,0.000000,0.000000
1618378450.451721,125.000000,0.000000,4276.922852,4245.641113,4210.769043,4193.846191,4266.666504,450.000000,3.000000,55.000000,,,,0.000000,4.000000,4.000000,4.000000,4.000000,4.000000,100.000000,,,,,,,,,,,,,,,,,,,
1618378450.459546,126.000000,0.000000,4269.230957,4241.538574,4221.025879,4191.282227,4264.102539,450.000000,3.000000,55.000000,,,,0.000000,4.000000,4.000000,4.000000,4.000000,4.000000,100.000000,,,,,,,,63.000000,0.000000,0.180533,0.585205,0.173584,-0.771240,1.009781,0.065431,-0.148440,-13.113723,10.172611,56.574070
1618378450.467372,127.000000,0.000000,4277.436035,4234.871582,4215.384766,4185.641113,4261.025879,234.000000,3.000000,55.000000,,,,0.000000,4.000000,4.000000,4.000000,4.000000,4.000000,100.000000,,,,,,,,,,,,,,,,,,,
1618378450.475197,0.000000,0.000000,4290.769043,4236.410156,4205.641113,4188.205078,4258.461426,450.000000,3.000000,55.000000,,,,0.000000,4.000000,4.000000,4.000000,4.000000,4.000000,100.000000,,,,,,,,0.000000,0.000000,0.180533,0.585205,0.173584,-0.771240,0.992691,0.066896,-0.151858,-13.178104,8.617012,57.376720
1618378450.482918,1.000000,0.000000,4286.666504,4241.538574,4202.563965,4186.666504,4258.974121,450.000000,3.000000,55.000000,,,,0.000000,4.000000,4.000000,4.000000,4.000000,4.000000,100.000000,,,,,,,,,,,,,,,,,,,
1618378450.490739,2.000000,0.000000,4276.922852,4241.538574,4195.384766,4175.384766,4261.025879,16220.000000,3.000000,55.000000,,,,0.000000,4.000000,4.000000,4.000000,4.000000,4.000000,100.000000,,,,,,,,1.000000,0.000000,0.180767,0.585205,0.173340,-0.771240,0.998062,0.065431,-0.152834,-13.236048,7.336603,58.039291
1618378450.498560,3.000000,0.000000,4266.153809,4236.410156,4184.615234,4167.179688,4257.436035,450.000000,3.000000,55.000000,,,,0.000000,4.000000,4.000000,4.000000,4.000000,4.000000,100.000000,,,,,,,,,,,,,,,,,,,
1618378450.506380,4.000000,0.000000,4255.897461,4231.794922,4181.025879,4172.820313,4245.128418,16209.000000,3.000000,55.000000,,,,0.000000,4.000000,4.000000,4.000000,4.000000,4.000000,100.000000,,,,,,,,2.000000,0.000000,0.180767,0.585205,0.173340,-0.771240,0.998062,0.056641,-0.147463,-13.288196,9.892788,58.575794
1618378450.514201,5.000000,0.000000,4264.615234,4231.282227,4185.641113,4185.128418,4244.615234,450.000000,3.000000,55.000000,,,,0.000000,4.000000,4.000000,4.000000,4.000000,4.000000,100.000000,,,,,,,,,,,,,,,,,,,
1618378450.522022,6.000000,0.000000,4277.948730,4231.794922,4196.410156,4196.922852,4265.128418,16194.000000,3.000000,55.000000,,,,0.000000,4.000000,4.000000,4.000000,4.000000,4.000000,100.000000,,,,,,,,3.000000,0.000000,0.180767,0.585205,0.173340,-0.771240,1.009293,0.078126,-0.156741,-13.335130,12.253169,57.264179
1618378450.529843,7.000000,0.000000,4277.948730,4239.487305,4207.179688,4202.051270,4272.307617,450.000000,3.000000,55.000000,,,,0.000000,4.000000,4.000000,4.000000,4.000000,4.000000,100.000000,,,,,,,,,,,,,,,,,,,
1618378450.537664,8.000000,0.000000,4272.307617,4246.666504,4206.153809,4189.743652,4256.922852,450.000000,3.000000,55.000000,,,,0.000000,4.000000,4.000000,4.000000,4.000000,4.000000,100.000000,,,,,,,,4.000000,0.000000,0.181001,0.585205,0.173096,-0.771240,0.988785,0.066407,-0.130373,-13.317554,14.377513,56.143547
1618378450.545385,9.000000,0.000000,4251.282227,4234.358887,4193.846191,4163.589844,4238.461426,16209.000000,3.000000,55.000000,,,,0.000000,4.000000,4.000000,4.000000,4.000000,4.000000,100.000000,,,,,,,,,,,,,,,,,,,
1618378450.553206,10.000000,0.000000,4227.692383,4225.641113,4187.692383,4154.358887,4224.102539,450.000000,3.000000,55.000000,,,,0.000000,4.000000,4.000000,4.000000,4.000000,4.000000,100.000000,,,,,,,,5.000000,0.000000,0.181001,0.585205,0.173096,-0.771240,0.979507,0.060548,-0.147463,-13.241922,12.461239,56.989250
1618378450.561027,11.000000,0.000000,4239.487305,4240.000000,4192.820313,4175.897461,4225.641113,16217.000000,3.000000,55.000000,,,,0.000000,4.000000,4.000000,4.000000,4.000000,4.000000,100.000000,,,,,,,,,,,,,,,,,,,
1618378450.568848,12.000000,0.000000,4272.820313,4252.307617,4204.102539,4198.461426,4251.282227,450.000000,3.000000,55.000000,,,,0.000000,4.000000,4.000000,4.000000,4.000000,4.000000,100.000000,,,,,,,,6.000000,0.000000,0.181001,0.585205,0.173096,-0.771240,0.985855,0.074708,-0.145510,-13.293484,14.684406,55.955925
1618378450.576669,13.000000,0.000000,4281.025879,4248.205078,4209.743652,4195.384766,4266.153809,450.000000,3.000000,55.000000,,,,0.000000,4.000000,4.000000,4.000000,4.000000,4.000000,100.000000,,,,,,,,,,,,,,,,,,,
1618378450.584490,14.000000,0.000000,4265.128418,4241.538574,4202.051270,4178.974121,4245.641113,450.000000,3.000000,55.000000,,,,0.000000,4.000000,4.000000,4.000000,4.000000,4.000000,100.000000,,,,,,,,7.000000,0.000000,0.181234,0.585205,0.172852,-0.771240,1.000504,0.063478,-0.152346,-13.160442,12.737443,56.820393
1618378450.592311,15.000000,0.000000,4256.410156,4241.538574,4195.897461,4174.871582,4233.333496,16217.000000,3.000000,55.000000,,,,0.000000,4.000000,4.000000,4.000000,4.000000,4.000000,100.000000,,,,,,,,,,,,,,,,,,,
1618378450.600133,16.000000,0.000000,4268.717773,4247.179688,4203.589844,4188.205078,4249.230957,0.000000,3.000000,55.000000,,,,0.000000,4.000000,4.000000,4.000000,4.000000,4.000000,100.000000,,,,,,,,8.000000,0.000000,0.181234,0.585205,0.172852,-0.771240,1.000992,0.064454,-0.135744,-13.040706,10.925360,57.658226
1618378450.607854,17.000000,0.000000,4280.000000,4253.846191,4213.333496,4195.897461,4255.384766,0.000000,3.000000,55.000000,,,,0.000000,4.000000,4.000000,4.000000,4.000000,4.000000,100.000000,,,,,,,,,,,,,,,,,,,
1618378450.615676,18.000000,0.000000,4271.282227,4249.230957,4213.333496,4191.282227,4245.128418,0.000000,3.000000,55.000000,,,,0.000000,4.000000,4.000000,4.000000,4.000000,4.000000,100.000000,,,,,,,,9.000000,0.000000,0.181234,0.585205,0.172852,-0.771240,1.005875,0.062501,-0.144045,-13.172204,9.354301,58.412281
1618378450.623498,19.000000,0.000000,4262.051270,4232.820313,4200.512695,4180.000000,4241.025879,0.000000,3.000000,55.000000,,,,0.000000,4.000000,4.000000,4.000000,4.000000,4.000000,100.000000,,,,,,,,,,,,,,,,,,,
1618378450.631320,20.000000,0.000000,4267.179688,4229.230957,4190.256348,4166.666504,4248.717773,0.000000,3.000000,55.000000,,,,0.000000,4.000000,4.000000,4.000000,4.000000,4.000000,100.000000,,,,,,,,10.000000,0.000000,0.181234,0.585205,0.172852,-0.771240,0.985367,0.071778,-0.144045,-13.230737,8.059978,58.971294
1618378450.639142,21.000000,0.000000,4268.717773,4240.512695,4195.384766,4168.205078,4251.282227,0.000000,3.000000,55.000000,,,,0.000000,4.000000,4.000000,4.000000,4.000000,4.000000,100.000000,,,,,,,,,,,,,,,,,,,
1618378450.646963,22.000000,0.000000,4260.512695,4246.666504,4201.025879,4182.051270,4240.000000,0.000000,3.000000,55.000000,,,,0.000000,4.000000,4.000000,4.000000,4.000000,4.000000,100.000000,,,,,,,,11.000000,0.000000,0.181234,0.585205,0.172852,-0.771240,1.001968,0.059571,-0.148440,-13.223601,6.655827,59.653854
1618378450.654785,23.000000,0.000000,4263.077148,4244.102539,4197.948730,4185.641113,4233.333496,0.000000,3.000000,55.000000,,,,0.000000,4.000000,4.000000,4.000000,4.000000,4.000000,100.000000,,,,,,,,,,,,,,,,,,,
1618378450.662607,24.000000,0.000000,4270.256348,4243.589844,4196.410156,4174.358887,4240.000000,0.000000,3.000000,55.000000,,,,0.000000,4.000000,4.000000,4.000000,4.000000,4.000000,100.000000,,,,,,,,12.000000,0.000000,0.182021,0.584961,0.172852,-0.771240,0.987320,0.060060,-0.147463,-13.157364,5.332275,59.969086
1618378450.670429,25.000000,0.000000,4268.205078,4243.589844,4197.436035,4167.179688,4247.179688,0.000000,3.000000,55.000000,,,,0.000000,4.000000,4.000000,4.000000,4.000000,4.000000,100.000000,,,,,,,,,,,,,,,,,,,
1618378450.678251,26.000000,0.000000,4265.641113,4237.436035,4196.410156,4171.794922,4248.717773,0.000000,3.000000,55.000000,,,,0.000000,4.000000,4.000000,4.000000,4.000000,4.000000,100.000000,,,,,,,,13.000000,0.000000,0.181789,0.584961,0.173096,-0.771240,0.999039,0.080568,-0.145022,-13.037934,8.148708,58.458328
1618378450.685972,27.000000,0.000000,4267.692383,4234.871582,4197.436035,4174.358887,4253.333496,0.000000,3.000000,55.000000,,,,0.000000,4.000000,4.000000,4.000000,4.000000,4.000000,100.000000,,,,,,,,,,,,,,,,,,,
1618378450.693793,28.000000,0.000000,4262.051270,4240.512695,4195.897461,4166.153809,4252.307617,0.000000,3.000000,55.000000,,,,0.000000,4.000000,4.000000,4.000000,4.000000,4.000000,100.000000,,,,,,,,14.000000,0.000000,0.181789,0.584961,0.173096,-0.771240,0.998062,0.071778,-0.137697,-13.109895,6.795499,59.012741
1618378450.701615,29.000000,0.000000,4256.922852,4237.948730,4192.820313,4156.922852,4246.153809,0.000000,3.000000,55.000000,,,,0.000000,4.000000,4.000000,4.000000,4.000000,4.000000,100.000000,,,,,,,,,,,,,,,,,,,
1618378450.709436,30.000000,0.000000,4261.025879,4228.205078,4197.948730,4162.563965,4247.179688,0.000000,3.000000,55.000000,,,,0.000000,4.000000,4.000000,4.000000,4.000000,4.000000,100.000000,,,,,,,,15.000000,0.000000,0.181789,0.584961,0.173096,-0.771240,0.992691,0.058595,-0.141604,-13.055028,9.525425,59.571526
1618378450.717257,31.000000,0.000000,4261.025879,4228.717773,4204.102539,4164.615234,4242.051270,0.000000,3.000000,55.000000,,,,0.000000,4.000000,4.000000,4.000000,4.000000,4.000000,100.000000,,,,,,,,,,,,,,,,,,,
1618378450.725079,32.000000,0.000000,4256.410156,4232.820313,4198.461426,4155.897461,4233.333496,0.000000,3.000000,55.000000,,,,0.000000,4.000000,4.000000,4.000000,4.000000,4.000000,100.000000,,,,,,,,16.000000,0.000000,0.182021,0.584961,0.172852,-0.771240,1.001480,0.066896,-0.143069,-13.125278,8.213990,59.954800
1618378450.732900,33.000000,0.000000,4241.025879,4226.153809,4181.538574,4149.230957,4230.256348,0.000000,3.000000,55.000000,,,,0.000000,4.000000,4.000000,4.000000,4.000000,4.000000,100.000000,,,,,,,,,,,,,,,,,,,
1618378450.740721,34.000000,0.000000,4224.615234,4213.846191,4168.205078,4145.128418,4222.563965,0.000000,3.000000,55.000000,,,,0.000000,4.000000,4.000000,4.000000,4.000000,4.000000,100.000000,,,,,,,,17.000000,0.000000,0.181770,0.584717,0.172852,-0.771484,0.991226,0.060060,-0.144533,-13.128689,6.914069,60.359566
1618378450.748543,35.000000,0.000000,4224.615234,4208.205078,4174.358887,4145.641113,4210.256348,0.000000,3.000000,55.000000,,,,0.000000,4.000000,4.000000,4.000000,4.000000,4.000000,100.000000,,,,,,,,,,,,,,,,,,,
1618378450.756264,36.000000,0.000000,4224.615234,4216.410156,4189.230957,4153.333496,4205.641113,0.000000,3.000000,55.000000,,,,0.000000,4.000000,4.000000,4.000000,4.000000,4.000000,100.000000,,,,,,,,18.000000,0.000000,0.182002,0.584717,0.172607,-0.771484,0.998550,0.072755,-0.143557,-13.071942,5.684323,60.664036
1618378450.764086,37.000000,0.000000,4220.000000,4230.256348,4204.615234,4162.563965,4214.358887,0.000000,3.000000,55.000000,,,,0.000000,4.000000,4.000000,4.000000,4.000000,4.000000,100.000000,,,,,,,,,,,,,,,,,,,
1618378450.771907,38.000000,0.000000,4228.717773,4228.717773,4224.102539,4167.179688,4222.051270,0.000000,3.000000,55.000000,,,,0.000000,4.000000,4.000000,4.000000,4.000000,4.000000,100.000000,,,,,,,,19.000000,0.000000,0.182002,0.584717,0.172607,-0.771484,0.991714,0.066896,-0.146487,-13.140502,8.345921,59.203419
1618378450.779729,39.000000,0.000000,4242.051270,4220.512695,4238.461426,4169.230957,4221.538574,0.000000,3.000000,55.000000,,,,0.000000,4.000000,4.000000,4.000000,4.000000,4.000000,100.000000,,,,,,,,,,,,,,,,,,,
1618378450.787550,40.000000,0.000000,4245.641113,4228.205078,4247.179688,4172.820313,4222.563965,0.000000,3.000000,55.000000,,,,0.000000,4.000000,4.000000,4.000000,4.000000,4.000000,100.000000,,,,,,,,20.000000,0.000000,0.182002,0.584717,0.172607,-0.771484,0.990738,0.059571,-0.155764,-13.022758,10.920805,57.769226
1618378450.795372,41.000000,0.000000,4244.102539,4232.307617,4247.692383,4172.307617,4228.205078,0.000000,3.000000,55.000000,,,,0.000000,4.000000,4.000000,4.000000,4.000000,4.000000,100.000000,,,,,,,,,,,,,,,,,,,
1618378450.803194,42.000000,0.000000,4234.358887,4223.589844,4235.384766,4160.512695,4229.743652,0.000000,3.000000,55.000000,,,,0.000000,4.000000,4.000000,4.000000,4.000000,4.000000,100.000000,,,,,,,,21.000000,0.000000,0.181983,0.584473,0.172363,-0.771729,0.985855,0.057130,-0.163088,-13.096236,9.350202,58.512180
1618378450.811015,43.000000,0.000000,4223.077148,4221.025879,4227.692383,4148.717773,4225.128418,0.000000,3.000000,55.000000,,,,0.000000,4.000000,4.000000,4.000000,4.000000,4.000000,100.000000,,,,,,,,,,,,,,,,,,,
1618378450.818837,44.000000,0.000000,4221.538574,4221.538574,4226.153809,4152.307617,4224.102539,0.000000,3.000000,55.000000,,,,0.000000,4.000000,4.000000,4.000000,4.000000,4.000000,100.000000,,,,,,,,22.000000,0.000000,0.182214,0.584473,0.172119,-0.771729,0.996109,0.069825,-0.142092,-13.162366,7.817028,59.001392
1618378450.826559,45.000000,0.000000,4221.025879,4212.307617,4206.666504,4157.948730,4220.512695,0.000000,3.000000,55.000000,,,,0.000000,4.000000,4.000000,4.000000,4.000000,4.000000,100.000000,,,,,,,,,,,,,,,,,,,
1618378450.834380,46.000000,0.000000,4218.974121,4207.692383,4179.487305,4155.897461,4214.871582,0.000000,3.000000,55.000000,,,,0.000000,4.000000,4.000000,4.000000,4.000000,4.000000,100.000000,,,,,,,,23.000000,0.000000,0.182214,0.584473,0.172119,-0.771729,0.995132,0.063966,-0.141604,-13.221883,6.616617,57.647221
1618378450.842202,47.000000,0.000000,4228.205078,4215.384766,4180.000000,4154.871582,4226.666504,0.000000,3.000000,55.000000,,,,0.000000,4.000000,4.000000,4.000000,4.000000,4.000000,100.000000,,,,,,,,,,,,,,,,,,,
1618378450.850024,48.000000,0.000000,4241.025879,4221.538574,4190.769043,4158.461426,4242.563965,0.000000,3.000000,55.000000,,,,0.000000,4.000000,4.000000,4.000000,4.000000,4.000000,100.000000,,,,,,,,24.000000,0.000000,0.182444,0.584473,0.171875,-0.771729,0.989273,0.050294,-0.143557,-13.155817,5.596063,58.342556
1618378450.857846,49.000000,0.000000,4238.974121,4217.436035,4186.153809,4160.512695,4234.871582,0.000000,3.000000,55.000000,,,,0.000000,4.000000,4.000000,4.000000,4.000000,4.000000,100.000000,,,,,,,,,,,,,,,,,,,
1618378450.865668,50.000000,0.000000,4231.794922,4213.333496,4178.974121,4157.436035,4220.512695,0.000000,3.000000,55.000000,,,,0.000000,4.000000,4.000000,4.000000,4.000000,4.000000,100.000000,,,,,,,,25.000000,0.000000,0.182214,0.584473,0.172119,-0.771729,0.996109,0.069825,-0.142092,-13.036543,8.326302,57.054268
1618378450.873489,51.000000,0.000000,4238.974121,4225.128418,4184.615234,4161.025879,4227.692383,0.000000,3.000000,55.000000,,,,0.000000,4.000000,4.000000,4.000000,4.000000,4.000000,100.000000,,,,,,,,,,,,,,,,,,,
1618378450.881311,52.000000,0.000000,4239.487305,4236.922852,4189.230957,4168.717773,4233.846191,0.000000,3.000000,55.000000,,,,0.000000,4.000000,4.000000,4.000000,4.000000,4.000000,100.000000,,,,,,,,26.000000,0.000000,0.182444,0.584473,0.171875,-0.771729,0.989273,0.050294,-0.143557,-12.989011,7.134779,57.808903
1618378450.889133,53.000000,0.000000,4228.717773,4230.769043,4184.102539,4166.666504,4227.692383,0.000000,3.000000,55.000000,,,,0.000000,4.000000,4.000000,4.000000,4.000000,4.000000,100.000000,,,,,,,,,,,,,,,,,,,
1618378450.896955,54.000000,0.000000,4234.358887,4227.179688,4184.102539,4161.538574,4227.692383,0.000000,3.000000,55.000000,,,,0.000000,4.000000,4.000000,4.000000,4.000000,4.000000,100.000000,,,,,,,,27.000000,0.000000,0.182444,0.584473,0.171875,-0.771729,0.980972,0.061036,-0.162112,-12.886417,5.703517,58.428257
1618378450.904676,55.000000,0.000000,4241.025879,4230.256348,4186.153809,4162.051270,4224.615234,0.000000,3.000000,55.000000,,,,0.000000,4.000000,4.000000,4.000000,4.000000,4.000000,100.000000,0.972656,100.000000,4.000000,4.000000,4.000000,4.000000,4.000000,,,,,,,,,,,,
1618378450.912498,56.000000,0.000000,4230.256348,4225.128418,4180.000000,4164.102539,4222.051270,0.000000,3.000000,55.000000,,,,0.000000,4.000000,4.000000,4.000000,4.000000,4.000000,100.000000,,,,,,,,28.000000,0.000000,0.182674,0.584473,0.171631,-0.771729,0.993179,0.074708,-0.143069,-12.913713,8.482826,57.191212
1618378450.920319,57.000000,0.000000,4230.256348,4222.563965,4176.410156,4168.717773,4236.922852,0.000000,3.000000,55.000000,,,,0.000000,4.000000,4.000000,4.000000,4.000000,4.000000,100.000000,,,,,,,,,,,,,,,,,,,
1618378450.928140,58.000000,0.000000,4243.077148,4229.743652,4179.487305,4173.333496,4247.692383,0.000000,3.000000,55.000000,,,,0.000000,4.000000,4.000000,4.000000,4.000000,4.000000,100.000000,,,,,,,,29.000000,0.000000,0.182674,0.584473,0.171631,-0.771729,0.998062,0.070314,-0.142092,-12.938280,7.215836,57.872337
1618378450.935962,59.000000,0.000000,4242.563965,4228.205078,4177.948730,4169.743652,4231.282227,0.000000,3.000000,55.000000,,,,0.000000,4.000000,4.000000,4.000000,4.000000,4.000000,100.000000,,,,,,,,,,,,,,,,,,,
1618378450.943783,60.000000,0.000000,4236.922852,4223.077148,4176.922852,4160.000000,4220.000000,0.000000,3.000000,55.000000,,,,0.000000,4.000000,4.000000,4.000000,4.000000,4.000000,100.000000,,,,,,,,30.000000,0.000000,0.182674,0.584473,0.171631,-0.771729,0.992203,0.069337,-0.138674,-12.900575,9.784098,58.664791
1618378450.951604,61.000000,0.000000,4237.948730,4228.205078,4186.153809,4154.358887,4228.717773,0.000000,3.000000,55.000000,,,,0.000000,4.000000,4.000000,4.000000,4.000000,4.000000,100.000000,,,,,,,,,,,,,,,,,,,
1618378450.959425,62.000000,0.000000,4236.410156,4234.358887,4194.871582,4154.358887,4236.410156,0.000000,3.000000,55.000000,,,,0.000000,4.000000,4.000000,4.000000,4.000000,4.000000,100.000000,,,,,,,,31.000000,0.000000,0.183152,0.584717,0.171387,-0.771484,0.993667,0.060060,-0.154788,-12.986271,12.155348,59.198559
1618378450.967247,63.000000,0.000000,4237.948730,4240.512695,4196.922852,4160.000000,4236.410156,0.000000,3.000000,55.000000,,,,0.000000,4.000000,4.000000,4.000000,4.000000,4.000000,100.000000,,,,,,,,,,,,,,,,,,,
1618378450.974968,64.000000,0.000000,4250.769043,4244.102539,4195.384766,4167.692383,4235.384766,450.000000,3.000000,55.000000,,,,0.000000,4.000000,4.000000,4.000000,4.000000,4.000000,100.000000,,,,,,,,32.000000,0.000000,0.183380,0.584717,0.171143,-0.771484,0.991226,0.065431,-0.145022,-12.883951,14.289474,57.764854
1618378450.982790,65.000000,0.000000,4257.436035,4234.871582,4195.384766,4168.205078,4237.948730,450.000000,3.000000,55.000000,,,,0.000000,4.000000,4.000000,4.000000,4.000000,4.000000,100.000000,,,,,,,,,,,,,,,,,,,
1618378450.990612,66.000000,0.000000,4246.666504,4231.794922,4197.948730,4169.230957,4241.025879,16227.000000,3.000000,55.000000,,,,0.000000,4.000000,4.000000,4.000000,4.000000,4.000000,100.000000,,,,,,,,33.000000,0.000000,0.183380,0.584717,0.171143,-0.771484,0.990738,0.061524,-0.156741,-13.031125,16.150372,56.653969
1618378450.998433,67.000000,0.000000,4236.410156,4237.948730,4196.410156,4170.769043,4233.846191,450.000000,3.000000,55.000000,,,,0.000000,4.000000,4.000000,4.000000,4.000000,4.000000,100.000000,,,,,,,,,,,,,,,,,,,
1618378451.006255,68.000000,0.000000,4232.820313,4230.769043,4185.641113,4163.077148,4215.384766,16202.000000,3.000000,55.000000,,,,0.000000,4.000000,4.000000,4.000000,4.000000,4.000000,100.000000,,,,,,,,34.000000,0.000000,0.184384,0.584473,0.170898,-0.771484,0.993667,0.052735,-0.155764,-13.103765,14.056811,57.448631
1618378451.014076,69.000000,0.000000,4231.282227,4224.615234,4175.897461,4157.948730,4208.205078,450.000000,3.000000,55.000000,,,,0.000000,4.000000,4.000000,4.000000,4.000000,4.000000,100.000000,,,,,,,,,,,,,,,,,,,
1618378451.021898,70.000000,0.000000,4227.692383,4232.820313,4176.410156,4153.333496,4212.307617,16196.000000,3.000000,55.000000,,,,0.000000,4.000000,4.000000,4.000000,4.000000,4.000000,100.000000,,,,,,,,35.000000,0.000000,0.184384,0.584473,0.170898,-0.771484,0.987808,0.054688,-0.147951,-12.989697,16.000792,56.189919
1618378451.029719,71.000000,0.000000,4228.717773,4236.410156,4184.102539,4149.743652,4215.897461,450.000000,3.000000,55.000000,,,,0.000000,4.000000,4.000000,4.000000,4.000000,4.000000,100.000000,,,,,,,,,,,,,,,,,,,
1618378451.037541,72.000000,0.000000,4235.897461,4232.820313,4188.717773,4155.897461,4220.512695,450.000000,3.000000,55.000000,,,,0.000000,4.000000,4.000000,4.000000,4.000000,4.000000,100.000000,,,,,,,,36.000000,0.000000,0.184610,0.584473,0.170654,-0.771484,0.994644,0.053223,-0.159182,-12.887034,13.922189,56.971172
1618378451.045263,73.000000,0.000000,4235.897461,4232.820313,4184.615234,4165.128418,4222.563965,16211.000000,3.000000,55.000000,,,,0.000000,4.000000,4.000000,4.000000,4.000000,4.000000,100.000000,,,,,,,,,,,,,,,,,,,
1618378451.053085,74.000000,0.000000,4234.871582,4233.333496,4181.538574,4166.666504,4225.641113,450.000000,3.000000,55.000000,,,,0.000000,4.000000,4.000000,4.000000,4.000000,4.000000,100.000000,,,,,,,,37.000000,0.000000,0.184610,0.584473,0.170654,-0.771484,0.984878,0.045411,-0.153323,-13.033899,11.931816,57.674297
1618378451.060907,75.000000,0.000000,4243.077148,4236.410156,4190.769043,4168.205078,4240.000000,16217.000000,3.000000,55.000000,,,,0.000000,4.000000,4.000000,4.000000,4.000000,4.000000,100.000000,,,,,,,,,,,,,,,,,,,
1618378451.068729,76.000000,0.000000,4246.153809,4242.051270,4196.922852,4173.846191,4248.205078,450.000000,3.000000,55.000000,,,,0.000000,4.000000,4.000000,4.000000,4.000000,4.000000,100.000000,,,,,,,,38.000000,0.000000,0.184610,0.584473,0.170654,-0.771484,0.993667,0.052247,-0.153323,-12.926817,14.028480,58.366928
1618378451.076551,77.000000,0.000000,4245.128418,4243.077148,4194.871582,4173.846191,4239.487305,450.000000,3.000000,55.000000,,,,0.000000,4.000000,4.000000,4.000000,4.000000,4.000000,100.000000,,,,,,,,,,,,,,,,,,,
1618378451.084373,78.000000,0.000000,4248.205078,4238.974121,4196.922852,4178.461426,4232.307617,450.000000,3.000000,55.000000,,,,0.000000,4.000000,4.000000,4.000000,4.000000,4.000000,100.000000,,,,,,,,39.000000,0.000000,0.184610,0.584473,0.170654,-0.771484,0.991714,0.045899,-0.151858,-12.950073,12.147109,59.050110
1618378451.092195,79.000000,0.000000,4247.179688,4234.358887,4202.563965,4182.051270,4240.512695,16217.000000,3.000000,55.000000,,,,0.000000,4.000000,4.000000,4.000000,4.000000,4.000000,100.000000,,,,,,,,,,,,,,,,,,,
1618378451.100017,80.000000,0.000000,4247.692383,4238.461426,4205.128418,4176.410156,4251.282227,450.000000,3.000000,55.000000,,,,0.000000,4.000000,4.000000,4.000000,4.000000,4.000000,100.000000,,,,,,,,40.000000,0.000000,0.184610,0.584473,0.170654,-0.771484,0.981949,0.062013,-0.149905,-12.911189,14.282059,57.810699
1618378451.107839,81.000000,0.000000,4257.436035,4245.641113,4206.153809,4175.384766,4255.897461,450.000000,3.000000,55.000000,,,,0.000000,4.000000,4.000000,4.000000,4.000000,4.000000,100.000000,,,,,,,,,,,,,,,,,,,
1618378451.115661,82.000000,0.000000,4264.102539,4243.589844,4208.717773,4180.000000,4256.922852,450.000000,3.000000,55.000000,,,,0.000000,4.000000,4.000000,4.000000,4.000000,4.000000,100.000000,,,,,,,,41.000000,0.000000,0.184835,0.584473,0.170410,-0.771484,0.993667,0.050782,-0.152346,-12.816377,12.375330,58.429871
1618378451.123383,83.000000,0.000000,4264.615234,4246.153809,4213.333496,4185.641113,4261.538574,16217.000000,3.000000,55.000000,,,,0.000000,4.000000,4.000000,4.000000,4.000000,4.000000,100.000000,,,,,,,,,,,,,,,,,,,
1618378451.131204,84.000000,0.000000,4268.205078,4260.000000,4216.922852,4190.256348,4273.846191,450.000000,3.000000,55.000000,,,,0.000000,4.000000,4.000000,4.000000,4.000000,4.000000,100.000000,,,,,,,,42.000000,0.000000,0.184835,0.584473,0.170410,-0.771484,1.001968,0.057130,-0.154299,-12.731047,14.547273,57.192669
1618378451.139025,85.000000,0.000000,4269.743652,4262.051270,4209.743652,4185.128418,4271.282227,450.000000,3.000000,55.000000,,,,0.000000,4.000000,4.000000,4.000000,4.000000,4.000000,100.000000,,,,,,,,,,,,,,,,,,,
1618378451.146847,86.000000,0.000000,4266.153809,4251.794922,4198.974121,4172.307617,4250.256348,450.000000,3.000000,55.000000,,,,0.000000,4.000000,4.000000,4.000000,4.000000,4.000000,100.000000,,,,,,,,43.000000,0.000000,0.184835,0.584473,0.170410,-0.771484,0.995132,0.054688,-0.148928,-12.714065,12.673838,57.933460
1618378451.154668,87.000000,0.000000,4257.948730,4251.282227,4194.871582,4171.794922,4243.589844,16217.000000,3.000000,55.000000,,,,0.000000,4.000000,4.000000,4.000000,4.000000,4.000000,100.000000,,,,,,,,,,,,,,,,,,,
1618378451.162489,88.000000,0.000000,4254.871582,4249.743652,4188.205078,4175.384766,4252.307617,450.000000,3.000000,55.000000,,,,0.000000,4.000000,4.000000,4.000000,4.000000,4.000000,100.000000,,,,,,,,44.000000,0.000000,0.184835,0.584473,0.170410,-0.771484,0.994644,0.044923,-0.143069,-12.758596,14.875745,58.600174
1618378451.170311,89.000000,0.000000,4256.410156,4245.128418,4179.487305,4168.717773,4251.794922,450.000000,3.000000,55.000000,,,,0.000000,4.000000,4.000000,4.000000,4.000000,4.000000,100.000000,,,,,,,,,,,,,,,,,,,
1618378451.178132,90.000000,0.000000,4254.871582,4253.846191,4184.615234,4172.820313,4243.589844,450.000000,3.000000,55.000000,,,,0.000000,4.000000,4.000000,4.000000,4.000000,4.000000,100.000000,,,,,,,,45.000000,0.000000,0.185060,0.584473,0.170166,-0.771484,0.995132,0.065431,-0.140139,-12.559413,16.678017,59.140400
1618378451.185953,91.000000,0.000000,4253.333496,4259.487305,4193.333496,4174.358887,4238.461426,16217.000000,3.000000,55.000000,,,,0.000000,4.000000,4.000000,4.000000,4.000000,4.000000,100.000000,,,,,,,,,,,,,,,,,,,
1618378451.193671,92.000000,0.000000,4243.589844,4241.025879,4182.563965,4145.641113,4224.615234,450.000000,3.000000,55.000000,,,,0.000000,4.000000,4.000000,4.000000,4.000000,4.000000,100.000000,,,,,,,,46.000000,0.000000,0.185060,0.584473,0.170166,-0.771484,0.991226,0.051270,-0.146975,-12.559594,14.471876,59.626606
1618378451.201488,93.000000,0.000000,4222.051270,4225.641113,4166.153809,4122.563965,4206.666504,450.000000,3.000000,55.000000,,,,0.000000,4.000000,4.000000,4.000000,4.000000,4.000000,100.000000,,,,,,,,,,,,,,,,,,,
1618378451.209208,94.000000,0.000000,4215.384766,4237.948730,4174.358887,4143.077148,4208.205078,450.000000,3.000000,55.000000,,,,0.000000,4.000000,4.000000,4.000000,4.000000,4.000000,100.000000,,,,,,,,47.000000,0.000000,0.185829,0.584229,0.170166,-0.771484,0.991714,0.060060,-0.159182,-12.559758,12.486350,60.064190
1618378451.217027,95.000000,0.000000,4240.512695,4258.974121,4197.436035,4173.333496,4232.307617,16217.000000,3.000000,55.000000,,,,0.000000,4.000000,4.000000,4.000000,4.000000,4.000000,100.000000,,,,,,,,,,,,,,,,,,,
1618378451.224847,96.000000,0.000000,4264.615234,4267.692383,4205.128418,4175.384766,4252.820313,450.000000,3.000000,55.000000,,,,0.000000,4.000000,4.000000,4.000000,4.000000,4.000000,100.000000,,,,,,,,48.000000,0.000000,0.185284,0.584473,0.169922,-0.771484,0.994156,0.058106,-0.145510,-12.559905,14.647191,60.517830
1618378451.232667,97.000000,0.000000,4266.666504,4263.589844,4197.436035,4170.256348,4250.769043,450.000000,3.000000,55.000000,,,,0.000000,4.000000,4.000000,4.000000,4.000000,4.000000,100.000000,,,,,,,,,,,,,,,,,,,
1618378451.240487,98.000000,0.000000,4261.025879,4251.794922,4195.384766,4175.897461,4239.487305,450.000000,3.000000,55.000000,,,,0.000000,4.000000,4.000000,4.000000,4.000000,4.000000,100.000000,,,,,,,,49.000000,0.000000,0.185284,0.584473,0.169922,-0.771484,0.989273,0.047364,-0.148928,-12.739483,16.651764,58.952198
1618378451.248307,99.000000,0.000000,4262.563965,4245.128418,4201.025879,4183.589844,4241.025879,16217.000000,3.000000,55.000000,,,,0.000000,4.000000,4.000000,4.000000,4.000000,4.000000,100.000000,,,,,,,,,,,,,,,,,,,
1618378451.256127,100.000000,0.000000,4270.769043,4252.820313,4203.589844,4185.128418,4252.307617,450.000000,3.000000,55.000000,,,,0.000000,4.000000,4.000000,4.000000,4.000000,4.000000,100.000000,,,,,,,,50.000000,0.000000,0.185284,0.584473,0.169922,-0.771484,0.994156,0.047852,-0.159182,-12.841289,14.448249,59.517040
1618378451.263848,101.000000,0.000000,4267.692383,4255.384766,4198.974121,4182.051270,4248.717773,450.000000,3.000000,55.000000,,,,0.000000,4.000000,4.000000,4.000000,4.000000,4.000000,100.000000,,,,,,,,,,,,,,,,,,,
1618378451.271669,102.000000,0.000000,4263.077148,4250.256348,4196.410156,4182.051270,4247.179688,450.000000,3.000000,55.000000,,,,0.000000,4.000000,4.000000,4.000000,4.000000,4.000000,100.000000,,,,,,,,51.000000,0.000000,0.186275,0.584229,0.169678,-0.771484,0.983902,0.044434,-0.155276,-12.813282,16.412899,60.025394
1618378451.279490,103.000000,0.000000,4281.538574,4260.512695,4210.769043,4189.230957,4271.794922,16217.000000,3.000000,55.000000,,,,0.000000,4.000000,4.000000,4.000000,4.000000,4.000000,100.000000,,,,,,,,,,,,,,,,,,,
1618378451.287311,104.000000,0.000000,4301.025879,4270.769043,4223.077148,4196.410156,4288.205078,450.000000,3.000000,55.000000,,,,0.000000,4.000000,4.000000,4.000000,4.000000,4.000000,100.000000,,,,,,,,52.000000,0.000000,0.186052,0.584229,0.169922,-0.771484,0.999039,0.053223,-0.137697,-12.728261,14.293087,60.423100
1618378451.295132,105.000000,0.000000,4294.358887,4257.948730,4214.358887,4192.820313,4275.384766,450.000000,3.000000,55.000000,,,,0.000000,4.000000,4.000000,4.000000,4.000000,4.000000,100.000000,,,,,,,,,,,,,,,,,,,
1618378451.302954,106.000000,0.000000,4280.512695,4250.769043,4206.153809,4188.717773,4264.102539,450.000000,3.000000,55.000000,,,,0.000000,4.000000,4.000000,4.000000,4.000000,4.000000,100.000000,,,,,,,,53.000000,0.000000,0.185284,0.584473,0.169922,-0.771484,1.008316,0.059083,-0.153811,-12.771373,12.325439,60.721218
1618378451.310775,107.000000,0.000000,4279.487305,4255.384766,4206.666504,4187.692383,4265.128418,16217.000000,3.000000,55.000000,,,,0.000000,4.000000,4.000000,4.000000,4.000000,4.000000,100.000000,,,,,,,,,,,,,,,,,,,
1618378451.318596,108.000000,0.000000,4276.922852,4251.282227,4205.641113,4185.128418,4262.051270,450.000000,3.000000,55.000000,,,,0.000000,4.000000,4.000000,4.000000,4.000000,4.000000,100.000000,,,,,,,,54.000000,0.000000,0.185284,0.584473,0.169922,-0.771484,0.999527,0.055665,-0.152834,-12.810174,10.554558,60.989525
1618378451.326317,109.000000,0.000000,4274.871582,4252.307617,4209.230957,4192.820313,4263.077148,450.000000,3.000000,55.000000,,,,0.000000,4.000000,4.000000,4.000000,4.000000,4.000000,100.000000,,,,,,,,,,,,,,,,,,,
1618378451.334138,110.000000,0.000000,4283.589844,4263.077148,4213.846191,4201.025879,4268.717773,450.000000,3.000000,55.000000,,,,0.000000,4.000000,4.000000,4.000000,4.000000,4.000000,100.000000,,,,,,,,55.000000,0.000000,0.185829,0.584229,0.170166,-0.771484,0.985855,0.054200,-0.157229,-12.845095,12.848763,61.410446
1618378451.341959,111.000000,0.000000,4290.256348,4264.615234,4207.692383,4194.358887,4264.102539,16217.000000,3.000000,55.000000,,,,0.000000,4.000000,4.000000,4.000000,4.000000,4.000000,100.000000,,,,,,,,,,,,,,,,,,,
1618378451.349780,112.000000,0.000000,4282.563965,4264.615234,4201.538574,4187.179688,4257.948730,450.000000,3.000000,55.000000,,,,0.000000,4.000000,4.000000,4.000000,4.000000,4.000000,100.000000,,,,,,,,56.000000,0.000000,0.185284,0.584473,0.169922,-0.771484,1.008316,0.059083,-0.153811,-12.876523,11.025548,61.609833
1618378451.357601,113.000000,0.000000,4273.846191,4270.256348,4200.512695,4193.333496,4257.436035,450.000000,3.000000,55.000000,,,,0.000000,4.000000,4.000000,4.000000,4.000000,4.000000,100.000000,,,,,,,,,,,,,,,,,,,
1618378451.365422,114.000000,0.000000,4271.794922,4267.692383,4194.871582,4194.358887,4258.461426,450.000000,3.000000,55.000000,,,,0.000000,4.000000,4.000000,4.000000,4.000000,4.000000,100.000000,,,,,,,,57.000000,0.000000,0.185829,0.584229,0.170166,-0.771484,0.985855,0.054200,-0.157229,-12.904809,13.272654,61.968723
1618378451.373243,115.000000,0.000000,4266.666504,4255.897461,4185.128418,4176.410156,4258.974121,16217.000000,3.000000,55.000000,,,,0.000000,4.000000,4.000000,4.000000,4.000000,4.000000,100.000000,,,,,,,,,,,,,,,,,,,
1618378451.381064,116.000000,0.000000,4265.128418,4252.820313,4186.666504,4167.179688,4256.922852,450.000000,3.000000,55.000000,,,,0.000000,4.000000,4.000000,4.000000,4.000000,4.000000,100.000000,,,,,,,,58.000000,0.000000,0.186052,0.584229,0.169922,-0.771484,0.998062,0.060060,-0.140627,-12.870451,15.354864,60.377632
1618378451.388886,117.000000,0.000000,4267.179688,4257.948730,4193.333496,4176.922852,4248.205078,450.000000,3.000000,55.000000,,,,0.000000,4.000000,4.000000,4.000000,4.000000,4.000000,100.000000,,,,,,,,,,,,,,,,,,,
1618378451.396606,118.000000,0.000000,4264.102539,4256.410156,4191.282227,4178.974121,4243.077148,450.000000,3.000000,55.000000,,,,0.000000,4.000000,4.000000,4.000000,4.000000,4.000000,100.000000,,,,,,,,59.000000,0.000000,0.186052,0.584229,0.169922,-0.771484,0.988296,0.060060,-0.154788,-12.899343,13.400670,60.799931
1618378451.404427,119.000000,0.000000,4264.102539,4249.743652,4188.205078,4173.846191,4246.153809,16217.000000,3.000000,55.000000,,,,0.000000,4.000000,4.000000,4.000000,4.000000,4.000000,100.000000,0.972656,100.000000,4.000000,4.000000,4.000000,4.000000,4.000000,,,,,,,,,,,,
1618378451.412247,120.000000,0.000000,4268.205078,4253.846191,4196.922852,4181.025879,4246.666504,450.000000,3.000000,55.000000,,,,0.000000,4.000000,4.000000,4.000000,4.000000,4.000000,100.000000,,,,,,,,60.000000,0.000000,0.185829,0.584229,0.170166,-0.771484,1.000015,0.058106,-0.136233,-12.805717,15.290632,59.505165
1618378451.420068,121.000000,0.000000,4262.051270,4262.051270,4205.128418,4188.717773,4245.641113,450.000000,3.000000,55.000000,,,,0.000000,4.000000,4.000000,4.000000,4.000000,4.000000,100.000000,,,,,,,,,,,,,,,,,,,
1618378451.427889,122.000000,0.000000,4247.692383,4261.538574,4205.641113,4183.077148,4240.000000,450.000000,3.000000,55.000000,,,,0.000000,4.000000,4.000000,4.000000,4.000000,4.000000,100.000000,,,,,,,,61.000000,0.000000,0.185829,0.584229,0.170166,-0.771484,0.992203,0.049805,-0.145998,-12.781267,13.462493,60.074524
1618378451.435709,123.000000,0.000000,4243.077148,4255.897461,4203.589844,4175.897461,4223.077148,16217.000000,3.000000,55.000000,,,,0.000000,4.000000,4.000000,4.000000,4.000000,4.000000,100.000000,,,,,,,,,,,,,,,,,,,
1618378451.443530,124.000000,0.000000,4245.641113,4250.256348,4200.512695,4172.820313,4215.897461,450.000000,3.000000,55.000000,,,,0.000000,4.000000,4.000000,4.000000,4.000000,4.000000,100.000000,,,,,,,,62.000000,0.000000,0.185829,0.584229,0.170166,-0.771484,0.988785,0.067872,-0.140139,-12.639633,15.406089,58.613041
1618378451.451350,125.000000,0.000000,4249.230957,4249.743652,4201.538574,4173.846191,4234.871582,450.000000,3.000000,55.000000,,,,0.000000,4.000000,4.000000,4.000000,4.000000,4.000000,100.000000,,,,,,,,,,,,,,,,,,,
1618378451.459072,126.000000,0.000000,4254.358887,4255.384766,4201.538574,4177.436035,4248.717773,450.000000,3.000000,55.000000,,,,0.000000,4.000000,4.000000,4.000000,4.000000,4.000000,100.000000,,,,,,,,63.000000,0.000000,0.185605,0.584229,0.170410,-0.771484,1.000992,0.055177,-0.148440,-12.811238,13.386956,59.211796
1618378451.466894,127.000000,0.000000,4255.897461,4260.000000,4203.077148,4180.000000,4242.051270,234.000000,3.000000,55.000000,,,,0.000000,4.000000,4.000000,4.000000,4.000000,4.000000,100.000000,,,,,,,,,,,,,,,,,,,
1618378451.474715,0.000000,0.000000,4260.000000,4261.538574,4215.384766,4191.794922,4243.077148,450.000000,3.000000,55.000000,,,,0.000000,4.000000,4.000000,4.000000,4.000000,4.000000,100.000000,,,,,,,,0.000000,0.000000,0.186372,0.583984,0.170410,-0.771484,0.993667,0.059571,-0.150881,-12.726421,11.569738,59.870308
1618378451.482537,1.000000,0.000000,4274.871582,4260.000000,4225.128418,4208.205078,4253.846191,450.000000,3.000000,55.000000,,,,0.000000,4.000000,4.000000,4.000000,4.000000,4.000000,100.000000,,,,,,,,,,,,,,,,,,,
1618378451.490358,2.000000,0.000000,4283.077148,4262.051270,4216.410156,4209.743652,4252.820313,16220.000000,3.000000,55.000000,,,,0.000000,4.000000,4.000000,4.000000,4.000000,4.000000,100.000000,,,,,,,,1.000000,0.000000,0.186372,0.583984,0.170410,-0.771484,0.980972,0.062501,-0.149416,-12.769717,9.814610,60.283520
1618378451.498180,3.000000,0.000000,4274.358887,4268.205078,4203.077148,4197.948730,4252.820313,450.000000,3.000000,55.000000,,,,0.000000,4.000000,4.000000,4.000000,4.000000,4.000000,100.000000,,,,,,,,,,,,,,,,,,,
1618378451.506002,4.000000,0.000000,4263.589844,4263.077148,4194.871582,4184.615234,4257.436035,16228.000000,3.000000,55.000000,,,,0.000000,4.000000,4.000000,4.000000,4.000000,4.000000,100.000000,,,,,,,,2.000000,0.000000,0.186126,0.583740,0.170410,-0.771729,1.005875,0.060060,-0.147463,-12.808684,8.234996,60.655411
1618378451.513823,5.000000,0.000000,4250.769043,4250.256348,4186.153809,4173.333496,4245.641113,450.000000,3.000000,55.000000,,,,0.000000,4.000000,4.000000,4.000000,4.000000,4.000000,100.000000,,,,,,,,,,,,,,,,,,,
1618378451.521645,6.000000,0.000000,4243.589844,4249.743652,4181.538574,4167.179688,4237.948730,16174.000000,3.000000,55.000000,,,,0.000000,4.000000,4.000000,4.000000,4.000000,4.000000,100.000000,,,,,,,,3.000000,0.000000,0.185902,0.583740,0.170654,-0.771729,0.993667,0.063478,-0.156252,-12.724123,10.701342,61.229378
1618378451.529366,7.000000,0.000000,4257.436035,4257.948730,4184.615234,4170.256348,4246.153809,450.000000,3.000000,55.000000,,,,0.000000,4.000000,4.000000,4.000000,4.000000,4.000000,100.000000,,,,,,,,,,,,,,,,,,,
1618378451.537187,8.000000,0.000000,4267.179688,4261.025879,4189.743652,4178.974121,4241.538574,450.000000,3.000000,55.000000,,,,0.000000,4.000000,4.000000,4.000000,4.000000,4.000000,100.000000,,,,,,,,4.000000,0.000000,0.185902,0.583740,0.170654,-0.771729,0.985855,0.049805,-0.146487,-12.767649,9.092869,61.566498
1618378451.545008,9.000000,0.000000,4261.025879,4264.615234,4197.436035,4183.589844,4236.410156,16228.000000,3.000000,55.000000,,,,0.000000,4.000000,4.000000,4.000000,4.000000,4.000000,100.000000,,,,,,,,,,,,,,,,,,,
1618378451.552829,10.000000,0.000000,4261.538574,4267.692383,4204.615234,4183.589844,4249.743652,450.000000,3.000000,55.000000,,,,0.000000,4.000000,4.000000,4.000000,4.000000,4.000000,100.000000,,,,,,,,5.000000,0.000000,0.185902,0.583740,0.170654,-0.771729,0.987808,0.057130,-0.165042,-12.806822,7.585428,61.810093
1618378451.560650,11.000000,0.000000,4260.512695,4262.563965,4208.205078,4186.153809,4250.256348,16236.000000,3.000000,55.000000,,,,0.000000,4.000000,4.000000,4.000000,4.000000,4.000000,100.000000,,,,,,,,,,,,,,,,,,,
1618378451.568471,12.000000,0.000000,4251.282227,4258.974121,4207.692383,4182.563965,4237.948730,450.000000,3.000000,55.000000,,,,0.000000,4.000000,4.000000,4.000000,4.000000,4.000000,100.000000,,,,,,,,6.000000,0.000000,0.185902,0.583740,0.170654,-0.771729,1.007340,0.060548,-0.148440,-12.961708,6.408178,60.115234
1618378451.576292,13.000000,0.000000,4258.461426,4266.153809,4204.102539,4169.743652,4244.615234,450.000000,3.000000,55.000000,,,,0.000000,4.000000,4.000000,4.000000,4.000000,4.000000,100.000000,,,,,,,,,,,,,,,,,,,
1618378451.584113,14.000000,0.000000,4274.358887,4276.922852,4200.512695,4168.717773,4260.000000,450.000000,3.000000,55.000000,,,,0.000000,4.000000,4.000000,4.000000,4.000000,4.000000,100.000000,,,,,,,,7.000000,0.000000,0.185134,0.583984,0.170654,-0.771729,0.986343,0.052735,-0.145510,-12.981476,5.348653,60.503956
1618378451.591934,15.000000,0.000000,4274.358887,4277.436035,4200.512695,4183.589844,4257.436035,16236.000000,3.000000,55.000000,,,,0.000000,4.000000,4.000000,4.000000,4.000000,4.000000,100.000000,,,,,,,,,,,,,,,,,,,
1618378451.599656,16.000000,0.000000,4267.692383,4273.846191,4204.102539,4189.230957,4249.230957,0.000000,3.000000,55.000000,,,,0.000000,4.000000,4.000000,4.000000,4.000000,4.000000,100.000000,,,,,,,,8.000000,0.000000,0.185902,0.583740,0.170654,-0.771729,0.983902,0.062501,-0.145998,-12.939450,4.335265,60.913620
1618378451.607477,17.000000,0.000000,4264.615234,4271.282227,4200.512695,4183.077148,4246.666504,0.000000,3.000000,55.000000,,,,0.000000,4.000000,4.000000,4.000000,4.000000,4.000000,100.000000,,,,,,,,,,,,,,,,,,,
1618378451.615298,18.000000,0.000000,4259.487305,4264.615234,4190.769043,4181.538574,4247.692383,0.000000,3.000000,55.000000,,,,0.000000,4.000000,4.000000,4.000000,4.000000,4.000000,100.000000,,,,,,,,9.000000,0.000000,0.186148,0.583984,0.170654,-0.771484,0.990738,0.064942,-0.144045,-12.901628,7.131768,61.401947
1618378451.623119,19.000000,0.000000,4255.897461,4259.487305,4186.153809,4183.589844,4246.153809,0.000000,3.000000,55.000000,,,,0.000000,4.000000,4.000000,4.000000,4.000000,4.000000,100.000000,,,,,,,,,,,,,,,,,,,
1618378451.630940,20.000000,0.000000,4262.563965,4255.897461,4189.230957,4183.589844,4247.692383,0.000000,3.000000,55.000000,,,,0.000000,4.000000,4.000000,4.000000,4.000000,4.000000,100.000000,,,,,,,,10.000000,0.000000,0.186148,0.583984,0.170654,-0.771484,0.992203,0.061524,-0.144045,-12.987219,9.708436,59.747906
1618378451.638761,21.000000,0.000000,4274.871582,4251.282227,4196.410156,4183.077148,4259.487305,0.000000,3.000000,55.000000,,,,0.000000,4.000000,4.000000,4.000000,4.000000,4.000000,100.000000,,,,,,,,,,,,,,,,,,,
1618378451.646582,22.000000,0.000000,4281.025879,4257.948730,4200.512695,4185.641113,4267.179688,0.000000,3.000000,55.000000,,,,0.000000,4.000000,4.000000,4.000000,4.000000,4.000000,100.000000,,,,,,,,11.000000,0.000000,0.187135,0.583740,0.170410,-0.771484,0.994644,0.068849,-0.148440,-13.064250,8.199254,60.233173
1618378451.654403,23.000000,0.000000,4272.820313,4264.102539,4196.922852,4183.077148,4260.512695,0.000000,3.000000,55.000000,,,,0.000000,4.000000,4.000000,4.000000,4.000000,4.000000,100.000000,,,,,,,,,,,,,,,,,,,
1618378451.662124,24.000000,0.000000,4264.615234,4253.846191,4192.307617,4176.922852,4257.948730,0.000000,3.000000,55.000000,,,,0.000000,4.000000,4.000000,4.000000,4.000000,4.000000,100.000000,,,,,,,,12.000000,0.000000,0.186913,0.583740,0.170654,-0.771484,0.987320,0.052735,-0.148928,-13.073764,7.020437,60.729733
1618378451.669946,25.000000,0.000000,4267.692383,4246.666504,4191.794922,4176.922852,4264.615234,0.000000,3.000000,55.000000,,,,0.000000,4.000000,4.000000,4.000000,4.000000,4.000000,100.000000,,,,,,,,,,,,,,,,,,,
1618378451.677767,26.000000,0.000000,4265.128418,4252.307617,4190.256348,4174.871582,4258.461426,0.000000,3.000000,55.000000,,,,0.000000,4.000000,4.000000,4.000000,4.000000,4.000000,100.000000,,,,,,,,13.000000,0.000000,0.187135,0.583740,0.170410,-0.771484,0.993179,0.050294,-0.146487,-13.142140,9.787684,59.202728
1618378451.685588,27.000000,0.000000,4256.922852,4252.307617,4193.333496,4181.025879,4243.589844,0.000000,3.000000,55.000000,,,,0.000000,4.000000,4.000000,4.000000,4.000000,4.000000,100.000000,,,,,,,,,,,,,,,,,,,
1618378451.693409,28.000000,0.000000,4258.461426,4251.794922,4202.051270,4195.384766,4245.641113,0.000000,3.000000,55.000000,,,,0.000000,4.000000,4.000000,4.000000,4.000000,4.000000,100.000000,,,,,,,,14.000000,0.000000,0.186372,0.583984,0.170410,-0.771484,0.984878,0.060060,-0.155764,-12.964418,8.210762,57.888237
1618378451.701230,29.000000,0.000000,4262.051270,4254.358887,4205.128418,4195.897461,4252.820313,0.000000,3.000000,55.000000,,,,0.000000,4.000000,4.000000,4.000000,4.000000,4.000000,100.000000,,,,,,,,,,,,,,,,,,,
1618378451.709051,30.000000,0.000000,4258.461426,4250.769043,4203.077148,4184.102539,4241.025879,0.000000,3.000000,55.000000,,,,0.000000,4.000000,4.000000,4.000000,4.000000,4.000000,100.000000,,,,,,,,15.000000,0.000000,0.187380,0.583984,0.170410,-0.771240,0.978531,0.050782,-0.158206,-13.043730,6.851347,58.559475
1618378451.716872,31.000000,0.000000,4245.641113,4241.538574,4192.820313,4170.256348,4217.436035,0.000000,3.000000,55.000000,,,,0.000000,4.000000,4.000000,4.000000,4.000000,4.000000,100.000000,,,,,,,,,,,,,,,,,,,
1618378451.724693,32.000000,0.000000,4238.974121,4235.897461,4181.025879,4160.512695,4215.897461,0.000000,3.000000,55.000000,,,,0.000000,4.000000,4.000000,4.000000,4.000000,4.000000,100.000000,,,,,,,,16.000000,0.000000,0.187380,0.583984,0.170410,-0.771240,0.995132,0.053223,-0.161135,-13.115110,9.575688,59.163586
1618378451.732413,33.000000,0.000000,4251.282227,4243.589844,4184.615234,4169.230957,4233.333496,0.000000,3.000000,55.000000,,,,0.000000,4.000000,4.000000,4.000000,4.000000,4.000000,100.000000,,,,,,,,,,,,,,,,,,,
1618378451.740232,34.000000,0.000000,4258.974121,4250.256348,4190.256348,4180.512695,4236.922852,0.000000,3.000000,55.000000,,,,0.000000,4.000000,4.000000,4.000000,4.000000,4.000000,100.000000,,,,,,,,17.000000,0.000000,0.187380,0.583984,0.170410,-0.771240,0.991714,0.053712,-0.148440,-13.179353,11.907965,59.707287
1618378451.748051,35.000000,0.000000,4254.871582,4245.641113,4189.743652,4167.179688,4233.846191,0.000000,3.000000,55.000000,,,,0.000000,4.000000,4.000000,4.000000,4.000000,4.000000,100.000000,,,,,,,,,,,,,,,,,,,
1618378451.755871,36.000000,0.000000,4260.000000,4243.077148,4194.871582,4160.000000,4243.589844,0.000000,3.000000,55.000000,,,,0.000000,4.000000,4.000000,4.000000,4.000000,4.000000,100.000000,,,,,,,,18.000000,0.000000,0.186617,0.584229,0.170410,-0.771240,0.994644,0.050782,-0.145022,-13.117540,10.298461,60.196617
1618378451.763690,37.000000,0.000000,4270.769043,4244.615234,4198.974121,4175.384766,4251.794922,0.000000,3.000000,55.000000,,,,0.000000,4.000000,4.000000,4.000000,4.000000,4.000000,100.000000,,,,,,,,,,,,,,,,,,,
1618378451.771510,38.000000,0.000000,4269.743652,4246.153809,4194.871582,4184.102539,4248.717773,0.000000,3.000000,55.000000,,,,0.000000,4.000000,4.000000,4.000000,4.000000,4.000000,100.000000,,,,,,,,19.000000,0.000000,0.187401,0.584229,0.170654,-0.770996,0.993179,0.067872,-0.147463,-13.061909,12.678091,60.637016
1618378451.779231,39.000000,0.000000,4267.179688,4247.179688,4194.871582,4183.589844,4247.692383,0.000000,3.000000,55.000000,,,,0.000000,4.000000,4.000000,4.000000,4.000000,4.000000,100.000000,,,,,,,,,,,,,,,,,,,
1618378451.787053,40.000000,0.000000,4267.692383,4242.051270,4190.769043,4178.974121,4248.717773,0.000000,3.000000,55.000000,,,,0.000000,4.000000,4.000000,4.000000,4.000000,4.000000,100.000000,,,,,,,,20.000000,0.000000,0.187401,0.584229,0.170654,-0.770996,0.987320,0.066407,-0.147951,-12.892210,14.640311,61.093189
1618378451.794874,41.000000,0.000000,4261.025879,4233.846191,4180.512695,4168.205078,4237.948730,0.000000,3.000000,55.000000,,,,0.000000,4.000000,4.000000,4.000000,4.000000,4.000000,100.000000,,,,,,,,,,,,,,,,,,,
1618378451.802696,42.000000,0.000000,4242.051270,4231.282227,4177.436035,4157.948730,4222.051270,0.000000,3.000000,55.000000,,,,0.000000,4.000000,4.000000,4.000000,4.000000,4.000000,100.000000,,,,,,,,21.000000,0.000000,0.187401,0.584229,0.170654,-0.770996,0.989273,0.055177,-0.146487,-12.918927,16.406309,59.589653
1618378451.810518,43.000000,0.000000,4224.615234,4229.230957,4180.000000,4156.922852,4214.871582,0.000000,3.000000,55.000000,,,,0.000000,4.000000,4.000000,4.000000,4.000000,4.000000,100.000000,,,,,,,,,,,,,,,,,,,
1618378451.818339,44.000000,0.000000,4230.769043,4230.769043,4189.230957,4169.230957,4221.025879,0.000000,3.000000,55.000000,,,,0.000000,4.000000,4.000000,4.000000,4.000000,4.000000,100.000000,,,,,,,,22.000000,0.000000,0.187401,0.584229,0.170654,-0.770996,0.993179,0.067872,-0.147463,-12.883157,18.175156,58.236469
1618378451.826161,45.000000,0.000000,4246.666504,4242.051270,4202.563965,4178.974121,4226.153809,0.000000,3.000000,55.000000,,,,0.000000,4.000000,4.000000,4.000000,4.000000,4.000000,100.000000,,,,,,,,,,,,,,,,,,,
1618378451.833982,46.000000,0.000000,4245.641113,4246.666504,4200.512695,4173.333496,4222.051270,0.000000,3.000000,55.000000,,,,0.000000,4.000000,4.000000,4.000000,4.000000,4.000000,100.000000,,,,,,,,23.000000,0.000000,0.187401,0.584229,0.170654,-0.770996,0.989273,0.055177,-0.146487,-12.910779,19.587669,57.018608
1618378451.841804,47.000000,0.000000,4235.384766,4240.000000,4191.794922,4164.615234,4220.000000,0.000000,3.000000,55.000000,,,,0.000000,4.000000,4.000000,4.000000,4.000000,4.000000,100.000000,,,,,,,,,,,,,,,,,,,
1618378451.849525,48.000000,0.000000,4230.256348,4240.000000,4197.948730,4168.717773,4222.051270,0.000000,3.000000,55.000000,,,,0.000000,4.000000,4.000000,4.000000,4.000000,4.000000,100.000000,,,,,,,,24.000000,0.000000,0.187401,0.584229,0.170654,-0.770996,0.994644,0.057130,-0.145510,-12.995455,21.038378,57.776806
1618378451.857347,49.000000,0.000000,4224.615234,4241.025879,4203.077148,4170.256348,4217.948730,0.000000,3.000000,55.000000,,,,0.000000,4.000000,4.000000,4.000000,4.000000,4.000000,100.000000,,,,,,,,,,,,,,,,,,,
1618378451.865168,50.000000,0.000000,4222.051270,4235.384766,4190.256348,4161.538574,4212.307617,0.000000,3.000000,55.000000,,,,0.000000,4.000000,4.000000,4.000000,4.000000,4.000000,100.000000,,,,,,,,25.000000,0.000000,0.187401,0.584229,0.170654,-0.770996,0.989273,0.056153,-0.145022,-13.011847,22.284201,56.425461
1618378451.872989,51.000000,0.000000,4231.282227,4238.461426,4184.102539,4160.000000,4220.512695,0.000000,3.000000,55.000000,,,,0.000000,4.000000,4.000000,4.000000,4.000000,4.000000,100.000000,,,,,,,,,,,,,,,,,,,
1618378451.880811,52.000000,0.000000,4237.948730,4241.538574,4189.743652,4161.538574,4223.589844,0.000000,3.000000,55.000000,,,,0.000000,4.000000,4.000000,4.000000,4.000000,4.000000,100.000000,,,,,,,,26.000000,0.000000,0.187644,0.584473,0.170654,-0.770752,0.995132,0.060548,-0.149416,-13.086416,19.577257,57.183159
1618378451.888632,53.000000,0.000000,4229.743652,4230.769043,4184.615234,4158.974121,4211.282227,0.000000,3.000000,55.000000,,,,0.000000,4.000000,4.000000,4.000000,4.000000,4.000000,100.000000,,,,,,,,,,,,,,,,,,,
1618378451.896453,54.000000,0.000000,4228.205078,4227.179688,4178.974121,4166.153809,4211.282227,0.000000,3.000000,55.000000,,,,0.000000,4.000000,4.000000,4.000000,4.000000,4.000000,100.000000,,,,,,,,27.000000,0.000000,0.187644,0.584473,0.170654,-0.770752,0.987320,0.058106,-0.141115,-13.093713,20.849562,55.891182
1618378451.904275,55.000000,0.000000,4238.974121,4235.897461,4185.128418,4172.820313,4222.051270,0.000000,3.000000,55.000000,,,,0.000000,4.000000,4.000000,4.000000,4.000000,4.000000,100.000000,0.972656,100.000000,4.000000,4.000000,4.000000,4.000000,4.000000,,,,,,,,,,,,
1618378451.912096,56.000000,0.000000,4228.205078,4226.153809,4175.384766,4150.769043,4211.794922,0.000000,3.000000,55.000000,,,,0.000000,4.000000,4.000000,4.000000,4.000000,4.000000,100.000000,,,,,,,,28.000000,0.000000,0.187644,0.584473,0.170654,-0.770752,0.994156,0.056153,-0.153811,-12.920834,18.286083,56.821938
1618378451.919817,57.000000,0.000000,4204.102539,4212.307617,4161.538574,4128.717773,4192.820313,0.000000,3.000000,55.000000,,,,0.000000,4.000000,4.000000,4.000000,4.000000,4.000000,100.000000,,,,,,,,,,,,,,,,,,,
1618378451.927639,58.000000,0.000000,4215.384766,4227.179688,4179.487305,4152.820313,4200.000000,0.000000,3.000000,55.000000,,,,0.000000,4.000000,4.000000,4.000000,4.000000,4.000000,100.000000,,,,,,,,29.000000,0.000000,0.187644,0.584473,0.170654,-0.770752,0.992691,0.046876,-0.147463,-12.765242,15.919136,57.480171
1618378451.935460,59.000000,0.000000,4250.769043,4246.153809,4203.077148,4188.205078,4223.589844,0.000000,3.000000,55.000000,,,,0.000000,4.000000,4.000000,4.000000,4.000000,4.000000,100.000000,,,,,,,,,,,,,,,,,,,
1618378451.943281,60.000000,0.000000,4263.589844,4248.205078,4202.051270,4190.769043,4242.051270,0.000000,3.000000,55.000000,,,,0.000000,4.000000,4.000000,4.000000,4.000000,4.000000,100.000000,,,,,,,,30.000000,0.000000,0.188644,0.584473,0.170654,-0.770508,0.988785,0.047852,-0.149416,-12.864471,13.788884,58.252029
1618378451.951103,61.000000,0.000000,4249.743652,4248.205078,4192.820313,4180.000000,4244.102539,0.000000,3.000000,55.000000,,,,0.000000,4.000000,4.000000,4.000000,4.000000,4.000000,100.000000,,,,,,,,,,,,,,,,,,,
1618378451.958924,62.000000,0.000000,4240.000000,4248.717773,4191.794922,4175.897461,4234.358887,0.000000,3.000000,55.000000,,,,0.000000,4.000000,4.000000,4.000000,4.000000,4.000000,100.000000,,,,,,,,31.000000,0.000000,0.187886,0.584717,0.170654,-0.770508,0.993667,0.040040,-0.143557,-13.013593,15.640025,58.827072
1618378451.966745,63.000000,0.000000,4244.615234,4244.102539,4193.846191,4172.820313,4234.871582,0.000000,3.000000,55.000000,,,,0.000000,4.000000,4.000000,4.000000,4.000000,4.000000,100.000000,,,,,,,,,,,,,,,,,,,
1618378451.974567,64.000000,0.000000,4247.179688,4242.563965,4192.820313,4171.282227,4242.563965,450.000000,3.000000,55.000000,,,,0.000000,4.000000,4.000000,4.000000,4.000000,4.000000,100.000000,,,,,,,,32.000000,0.000000,0.188644,0.584473,0.170654,-0.770508,0.992691,0.049317,-0.157717,-13.087987,17.425684,57.370701
1618378451.982388,65.000000,0.000000,4244.102539,4242.563965,4192.307617,4172.307617,4235.384766,450.000000,3.000000,55.000000,,,,0.000000,4.000000,4.000000,4.000000,4.000000,4.000000,100.000000,,,,,,,,,,,,,,,,,,,
1618378451.990109,66.000000,0.000000,4247.179688,4240.512695,4197.436035,4174.871582,4225.641113,16224.000000,3.000000,55.000000,,,,0.000000,4.000000,4.000000,4.000000,4.000000,4.000000,100.000000,,,,,,,,33.000000,0.000000,0.188423,0.584473,0.170898,-0.770508,0.998550,0.054200,-0.155764,-13.154942,15.084962,58.093689
1618378451.997931,67.000000,0.000000,4251.282227,4240.000000,4198.461426,4172.820313,4233.333496,450.000000,3.000000,55.000000,,,,0.000000,4.000000,4.000000,4.000000,4.000000,4.000000,100.000000,,,,,,,,,,,,,,,,,,,
1618378452.005752,68.000000,0.000000,4244.615234,4233.333496,4182.051270,4150.769043,4234.871582,16226.000000,3.000000,55.000000,,,,0.000000,4.000000,4.000000,4.000000,4.000000,4.000000,100.000000,,,,,,,,34.000000,0.000000,0.188423,0.584473,0.170898,-0.770508,0.977554,0.058595,-0.154299,-13.275016,16.985941,56.890106
1618378452.013573,69.000000,0.000000,4230.256348,4224.102539,4165.641113,4131.282227,4212.820313,450.000000,3.000000,55.000000,,,,0.000000,4.000000,4.000000,4.000000,4.000000,4.000000,100.000000,,,,,,,,,,,,,,,,,,,
1618378452.021395,70.000000,0.000000,4218.974121,4226.666504,4166.666504,4145.128418,4200.000000,16181.000000,3.000000,55.000000,,,,0.000000,4.000000,4.000000,4.000000,4.000000,4.000000,100.000000,,,,,,,,35.000000,0.000000,0.188201,0.584473,0.171143,-0.770508,0.989761,0.053712,-0.149416,-13.203637,14.868639,57.720970
1618378452.029216,71.000000,0.000000,4224.102539,4234.358887,4177.948730,4164.615234,4207.692383,450.000000,3.000000,55.000000,,,,0.000000,4.000000,4.000000,4.000000,4.000000,4.000000,100.000000,,,,,,,,,,,,,,,,,,,
1618378452.037037,72.000000,0.000000,4231.794922,4236.410156,4183.589844,4156.410156,4204.615234,450.000000,3.000000,55.000000,,,,0.000000,4.000000,4.000000,4.000000,4.000000,4.000000,100.000000,,,,,,,,36.000000,0.000000,0.188201,0.584473,0.171143,-0.770508,0.991714,0.045411,-0.162112,-13.199211,12.963068,58.349117
1618378452.044859,73.000000,0.000000,4227.692383,4237.948730,4180.000000,4144.615234,4197.436035,16231.000000,3.000000,55.000000,,,,0.000000,4.000000,4.000000,4.000000,4.000000,4.000000,100.000000,,,,,,,,,,,,,,,,,,,
1618378452.052680,74.000000,0.000000,4230.769043,4242.563965,4180.512695,4150.769043,4210.769043,450.000000,3.000000,55.000000,,,,0.000000,4.000000,4.000000,4.000000,4.000000,4.000000,100.000000,,,,,,,,37.000000,0.000000,0.187979,0.584473,0.171387,-0.770508,0.999527,0.072267,-0.145022,-13.195229,11.128423,59.034081
1618378452.060401,75.000000,0.000000,4241.538574,4245.128418,4188.205078,4152.307617,4220.512695,16233.000000,3.000000,55.000000,,,,0.000000,4.000000,4.000000,4.000000,4.000000,4.000000,100.000000,,,,,,,,,,,,,,,,,,,
1618378452.068223,76.000000,0.000000,4239.487305,4244.615234,4189.230957,4147.179688,4211.282227,450.000000,3.000000,55.000000,,,,0.000000,4.000000,4.000000,4.000000,4.000000,4.000000,100.000000,,,,,,,,38.000000,0.000000,0.188977,0.584473,0.171387,-0.770264,0.991714,0.054200,-0.148440,-13.012197,9.537058,59.650547
1618378452.076044,77.000000,0.000000,4235.897461,4247.692383,4185.641113,4154.871582,4206.153809,450.000000,3.000000,55.000000,,,,0.000000,4.000000,4.000000,4.000000,4.000000,4.000000,100.000000,,,,,,,,,,,,,,,,,,,
1618378452.083865,78.000000,0.000000,4243.077148,4246.666504,4189.230957,4167.179688,4216.922852,450.000000,3.000000,55.000000,,,,0.000000,4.000000,4.000000,4.000000,4.000000,4.000000,100.000000,,,,,,,,39.000000,0.000000,0.188220,0.584717,0.171387,-0.770264,0.987808,0.042969,-0.138674,-12.967100,12.052643,60.085735
1618378452.091687,79.000000,0.000000,4252.820313,4244.102539,4193.333496,4171.794922,4229.230957,16233.000000,3.000000,55.000000,,,,0.000000,4.000000,4.000000,4.000000,4.000000,4.000000,100.000000,,,,,,,,,,,,,,,,,,,
1618378452.099508,80.000000,0.000000,4256.922852,4248.717773,4190.769043,4169.743652,4227.179688,450.000000,3.000000,55.000000,,,,0.000000,4.000000,4.000000,4.000000,4.000000,4.000000,100.000000,,,,,,,,40.000000,0.000000,0.188220,0.584717,0.171387,-0.770264,0.989273,0.062989,-0.157229,-12.806883,14.197040,60.597038
1618378452.107329,81.000000,0.000000,4251.794922,4250.769043,4185.641113,4164.102539,4215.384766,450.000000,3.000000,55.000000,,,,0.000000,4.000000,4.000000,4.000000,4.000000,4.000000,100.000000,,,,,,,,,,,,,,,,,,,
1618378452.115151,82.000000,0.000000,4240.512695,4243.589844,4181.538574,4157.948730,4211.282227,450.000000,3.000000,55.000000,,,,0.000000,4.000000,4.000000,4.000000,4.000000,4.000000,100.000000,,,,,,,,41.000000,0.000000,0.187997,0.584717,0.171631,-0.770264,0.996597,0.058595,-0.151858,-12.662686,12.298813,61.057209
1618378452.122972,83.000000,0.000000,4238.974121,4242.051270,4184.615234,4161.538574,4220.000000,16233.000000,3.000000,55.000000,,,,0.000000,4.000000,4.000000,4.000000,4.000000,4.000000,100.000000,,,,,,,,,,,,,,,,,,,
1618378452.130693,84.000000,0.000000,4249.743652,4247.179688,4193.846191,4166.153809,4225.128418,450.000000,3.000000,55.000000,,,,0.000000,4.000000,4.000000,4.000000,4.000000,4.000000,100.000000,,,,,,,,42.000000,0.000000,0.188995,0.584717,0.171631,-0.770020,0.999527,0.056153,-0.141604,-12.712356,10.590408,61.411549
1618378452.138515,85.000000,0.000000,4250.769043,4247.179688,4206.666504,4166.153809,4224.615234,450.000000,3.000000,55.000000,,,,0.000000,4.000000,4.000000,4.000000,4.000000,4.000000,100.000000,,,,,,,,,,,,,,,,,,,
1618378452.146337,86.000000,0.000000,4243.077148,4251.794922,4220.512695,4171.794922,4226.666504,450.000000,3.000000,55.000000,,,,0.000000,4.000000,4.000000,4.000000,4.000000,4.000000,100.000000,,,,,,,,43.000000,0.000000,0.188773,0.584717,0.171875,-0.770020,0.981949,0.044434,-0.152346,-12.697243,9.112659,59.816360
1618378452.154158,87.000000,0.000000,4254.871582,4261.025879,4227.179688,4180.000000,4232.820313,16233.000000,3.000000,55.000000,,,,0.000000,4.000000,4.000000,4.000000,4.000000,4.000000,100.000000,,,,,,,,,,,,,,,,,,,
1618378452.161980,88.000000,0.000000,4270.256348,4253.333496,4223.589844,4177.436035,4236.922852,450.000000,3.000000,55.000000,,,,0.000000,4.000000,4.000000,4.000000,4.000000,4.000000,100.000000,,,,,,,,44.000000,0.000000,0.188773,0.584717,0.171875,-0.770020,0.998550,0.057130,-0.145998,-12.922902,7.842502,60.294785
1618378452.169801,89.000000,0.000000,4264.102539,4237.948730,4213.333496,4169.230957,4238.461426,450.000000,3.000000,55.000000,,,,0.000000,4.000000,4.000000,4.000000,4.000000,4.000000,100.000000,,,,,,,,,,,,,,,,,,,
1618378452.177623,90.000000,0.000000,4258.974121,4240.512695,4204.102539,4169.230957,4244.615234,450.000000,3.000000,55.000000,,,,0.000000,4.000000,4.000000,4.000000,4.000000,4.000000,100.000000,,,,,,,,45.000000,0.000000,0.188773,0.584717,0.171875,-0.770020,0.987808,0.056641,-0.153811,-12.886735,6.699359,60.844997
1618378452.185444,91.000000,0.000000,4264.102539,4253.846191,4199.487305,4171.794922,4248.717773,16233.000000,3.000000,55.000000,,,,0.000000,4.000000,4.000000,4.000000,4.000000,4.000000,100.000000,,,,,,,,,,,,,,,,,,,
1618378452.193266,92.000000,0.000000,4263.589844,4252.307617,4195.384766,4163.589844,4251.282227,450.000000,3.000000,55.000000,,,,0.000000,4.000000,4.000000,4.000000,4.000000,4.000000,100.000000,,,,,,,,46.000000,0.000000,0.188550,0.584717,0.172119,-0.770020,0.998062,0.059083,-0.144045,-13.093446,5.431270,61.160740
1618378452.200983,93.000000,0.000000,4260.000000,4237.436035,4189.230957,4157.436035,4251.282227,450.000000,3.000000,55.000000,,,,0.000000,4.000000,4.000000,4.000000,4.000000,4.000000,100.000000,,,,,,,,,,,,,,,,,,,
1618378452.208801,94.000000,0.000000,4260.000000,4226.666504,4182.051270,4161.538574,4241.025879,450.000000,3.000000,55.000000,,,,0.000000,4.000000,4.000000,4.000000,4.000000,4.000000,100.000000,,,,,,,,47.000000,0.000000,0.188550,0.584717,0.172119,-0.770020,0.993179,0.056153,-0.144045,-13.100039,4.230174,61.504726
1618378452.216618,95.000000,0.000000,4258.461426,4229.230957,4182.563965,4163.589844,4240.000000,16233.000000,3.000000,55.000000,,,,0.000000,4.000000,4.000000,4.000000,4.000000,4.000000,100.000000,,,,,,,,,,,,,,,,,,,
1618378452.224338,96.000000,0.000000,4256.410156,4236.410156,4187.692383,4157.948730,4250.769043,450.000000,3.000000,55.000000,,,,0.000000,4.000000,4.000000,4.000000,4.000000,4.000000,100.000000,,,,,,,,48.000000,0.000000,0.188550,0.584717,0.172119,-0.770020,0.986343,0.050782,-0.154788,-13.046158,7.156817,59.900223
1618378452.232157,97.000000,0.000000,4253.333496,4231.794922,4182.563965,4156.410156,4249.743652,450.000000,3.000000,55.000000,,,,0.000000,4.000000,4.000000,4.000000,4.000000,4.000000,100.000000,,,,,,,,,,,,,,,,,,,
1618378452.239977,98.000000,0.000000,4250.256348,4221.538574,4172.307617,4158.974121,4241.025879,450.000000,3.000000,55.000000,,,,0.000000,4.000000,4.000000,4.000000,4.000000,4.000000,100.000000,,,,,,,,49.000000,0.000000,0.188327,0.584717,0.172363,-0.770020,0.995621,0.059083,-0.142092,-12.997664,5.902797,60.250629
1618378452.247797,99.000000,0.000000,4259.487305,4228.717773,4175.897461,4161.025879,4246.153809,16233.000000,3.000000,55.000000,,,,0.000000,4.000000,4.000000,4.000000,4.000000,4.000000,100.000000,,,,,,,,,,,,,,,,,,,
1618378452.255616,100.000000,0.000000,4268.205078,4243.077148,4185.128418,4163.077148,4245.128418,450.000000,3.000000,55.000000,,,,0.000000,4.000000,4.000000,4.000000,4.000000,4.000000,100.000000,,,,,,,,50.000000,0.000000,0.187567,0.584961,0.172363,-0.770020,0.998062,0.049317,-0.141604,-13.073651,8.841623,58.831348
1618378452.263436,101.000000,0.000000,4259.487305,4242.051270,4186.153809,4162.051270,4235.384766,450.000000,3.000000,55.000000,,,,0.000000,4.000000,4.000000,4.000000,4.000000,4.000000,100.000000,,,,,,,,,,,,,,,,,,,
1618378452.271158,102.000000,0.000000,4254.358887,4243.589844,4191.282227,4165.641113,4240.512695,450.000000,3.000000,55.000000,,,,0.000000,4.000000,4.000000,4.000000,4.000000,4.000000,100.000000,,,,,,,,51.000000,0.000000,0.188567,0.584961,0.172363,-0.769775,1.000015,0.054688,-0.146487,-13.022409,7.359308,57.613811
1618378452.278980,103.000000,0.000000,4267.179688,4250.769043,4194.871582,4170.256348,4251.282227,16233.000000,3.000000,55.000000,,,,0.000000,4.000000,4.000000,4.000000,4.000000,4.000000,100.000000,,,,,,,,,,,,,,,,,,,
1618378452.286801,104.000000,0.000000,4267.179688,4241.025879,4182.051270,4162.051270,4247.692383,450.000000,3.000000,55.000000,,,,0.000000,4.000000,4.000000,4.000000,4.000000,4.000000,100.000000,,,,,,,,52.000000,0.000000,0.188567,0.584961,0.172363,-0.769775,1.000015,0.053223,-0.149416,-13.095922,6.144854,58.432121
1618378452.294623,105.000000,0.000000,4254.871582,4233.846191,4176.922852,4161.538574,4240.000000,450.000000,3.000000,55.000000,,,,0.000000,4.000000,4.000000,4.000000,4.000000,4.000000,100.000000,,,,,,,,,,,,,,,,,,,
1618378452.302445,106.000000,0.000000,4255.897461,4242.051270,4187.179688,4172.307617,4239.487305,450.000000,3.000000,55.000000,,,,0.000000,4.000000,4.000000,4.000000,4.000000,4.000000,100.000000,,,,,,,,53.000000,0.000000,0.187567,0.584961,0.172363,-0.770020,0.998062,0.049317,-0.141604,-13.162083,8.939844,57.314323
1618378452.310267,107.000000,0.000000,4250.256348,4235.384766,4182.051270,4164.102539,4229.743652,16233.000000,3.000000,55.000000,,,,0.000000,4.000000,4.000000,4.000000,4.000000,4.000000,100.000000,,,,,,,,,,,,,,,,,,,
1618378452.318089,108.000000,0.000000,4234.358887,4217.436035,4169.230957,4151.794922,4215.384766,450.000000,3.000000,55.000000,,,,0.000000,4.000000,4.000000,4.000000,4.000000,4.000000,100.000000,,,,,,,,54.000000,0.000000,0.188567,0.584961,0.172363,-0.769775,1.000015,0.053223,-0.149416,-13.221628,7.567337,58.162582
1618378452.325910,109.000000,0.000000,4240.512695,4214.871582,4175.384766,4159.487305,4218.974121,450.000000,3.000000,55.000000,,,,0.000000,4.000000,4.000000,4.000000,4.000000,4.000000,100.000000,,,,,,,,,,,,,,,,,,,
1618378452.333732,110.000000,0.000000,4244.615234,4222.051270,4182.051270,4165.128418,4229.230957,450.000000,3.000000,55.000000,,,,0.000000,4.000000,4.000000,4.000000,4.000000,4.000000,100.000000,,,,,,,,55.000000,0.000000,0.188567,0.584961,0.172363,-0.769775,0.994156,0.066407,-0.149416,-13.215404,6.391896,58.866196
1618378452.341554,111.000000,0.000000,4237.948730,4227.179688,4177.948730,4160.512695,4227.692383,16233.000000,3.000000,55.000000,,,,0.000000,4.000000,4.000000,4.000000,4.000000,4.000000,100.000000,,,,,,,,,,,,,,,,,,,
1618378452.349275,112.000000,0.000000,4249.230957,4228.717773,4175.897461,4155.384766,4226.153809,450.000000,3.000000,55.000000,,,,0.000000,4.000000,4.000000,4.000000,4.000000,4.000000,100.000000,,,,,,,,56.000000,0.000000,0.188567,0.584961,0.172363,-0.769775,0.979507,0.056153,-0.145998,-13.090170,5.214368,59.379822
1618378452.357096,113.000000,0.000000,4266.666504,4226.153809,4172.820313,4152.820313,4232.820313,450.000000,3.000000,55.000000,,,,0.000000,4.000000,4.000000,4.000000,4.000000,4.000000,100.000000,,,,,,,,,,,,,,,,,,,
1618378452.364917,114.000000,0.000000,4267.179688,4224.615234,4169.230957,4162.051270,4236.922852,450.000000,3.000000,55.000000,,,,0.000000,4.000000,4.000000,4.000000,4.000000,4.000000,100.000000,,,,,,,,57.000000,0.000000,0.188567,0.584961,0.172363,-0.769775,1.001968,0.053223,-0.146975,-12.977461,8.042592,60.021530
1618378452.372738,115.000000,0.000000,4261.025879,4220.000000,4173.333496,4168.717773,4235.897461,16233.000000,3.000000,55.000000,,,,0.000000,4.000000,4.000000,4.000000,4.000000,4.000000,100.000000,,,,,,,,,,,,,,,,,,,
1618378452.380559,116.000000,0.000000,4261.538574,4214.358887,4172.307617,4161.025879,4234.358887,450.000000,3.000000,55.000000,,,,0.000000,4.000000,4.000000,4.000000,4.000000,4.000000,100.000000,,,,,,,,58.000000,0.000000,0.188567,0.584961,0.172363,-0.769775,0.993667,0.062013,-0.147951,-13.055468,6.819625,60.359806
1618378452.388381,117.000000,0.000000,4270.256348,4221.538574,4171.794922,4161.025879,4241.025879,450.000000,3.000000,55.000000,,,,0.000000,4.000000,4.000000,4.000000,4.000000,4.000000,100.000000,,,,,,,,,,,,,,,,,,,
1618378452.396202,118.000000,0.000000,4273.333496,4225.641113,4176.410156,4170.769043,4246.153809,450.000000,3.000000,55.000000,,,,0.000000,4.000000,4.000000,4.000000,4.000000,4.000000,100.000000,,,,,,,,59.000000,0.000000,0.188790,0.584961,0.172119,-0.769775,0.990738,0.054688,-0.145998,-12.946228,5.599324,60.724068
1618378452.404023,119.000000,0.000000,4267.692383,4215.384766,4172.307617,4166.666504,4242.051270,16233.000000,3.000000,55.000000,,,,0.000000,4.000000,4.000000,4.000000,4.000000,4.000000,100.000000,0.980469,100.000000,4.000000,4.000000,4.000000,4.000000,4.000000,,,,,,,,,,,,
1618378452.411844,120.000000,0.000000,4278.974121,4219.487305,4173.333496,4163.077148,4248.717773,450.000000,3.000000,55.000000,,,,0.000000,4.000000,4.000000,4.000000,4.000000,4.000000,100.000000,,,,,,,,60.000000,0.000000,0.188567,0.584961,0.172363,-0.769775,1.000504,0.053712,-0.150881,-12.907728,4.560869,60.992092
1618378452.419565,121.000000,0.000000,4300.512695,4238.461426,4185.641113,4172.307617,4264.615234,450.000000,3.000000,55.000000,,,,0.000000,4.000000,4.000000,4.000000,4.000000,4.000000,100.000000,,,,,,,,,,,,,,,,,,,
1618378452.427387,122.000000,0.000000,4301.538574,4243.589844,4185.128418,4174.871582,4268.205078,450.000000,3.000000,55.000000,,,,0.000000,4.000000,4.000000,4.000000,4.000000,4.000000,100.000000,,,,,,,,61.000000,0.000000,0.188790,0.584961,0.172119,-0.769775,1.011734,0.051759,-0.151858,-12.873078,7.514258,59.438850
1618378452.435209,123.000000,0.000000,4291.794922,4240.512695,4175.897461,4166.666504,4255.384766,16233.000000,3.000000,55.000000,,,,0.000000,4.000000,4.000000,4.000000,4.000000,4.000000,100.000000,,,,,,,,,,,,,,,,,,,
1618378452.443030,124.000000,0.000000,4291.282227,4242.051270,4176.922852,4164.102539,4239.487305,450.000000,3.000000,55.000000,,,,0.000000,4.000000,4.000000,4.000000,4.000000,4.000000,100.000000,,,,,,,,62.000000,0.000000,0.188567,0.584961,0.172363,-0.769775,0.997086,0.067872,-0.157229,-12.722262,6.224494,60.014839
1618378452.450852,125.000000,0.000000,4293.846191,4239.487305,4182.051270,4173.333496,4241.025879,450.000000,3.000000,55.000000,,,,0.000000,4.000000,4.000000,4.000000,4.000000,4.000000,100.000000,,,,,,,,,,,,,,,,,,,
1618378452.458673,126.000000,0.000000,4291.794922,4231.794922,4187.692383,4178.461426,4253.333496,450.000000,3.000000,55.000000,,,,0.000000,4.000000,4.000000,4.000000,4.000000,4.000000,100.000000,,,,,,,,63.000000,0.000000,0.189561,0.584961,0.172363,-0.769531,0.999527,0.046876,-0.147463,-12.706159,9.011520,60.533230
1618378452.466495,127.000000,0.000000,4292.820313,4237.436035,4195.897461,4175.384766,4258.974121,234.000000,3.000000,55.000000,,,,0.000000,4.000000,4.000000,4.000000,4.000000,4.000000,100.000000,,,,,,,,,,,,,,,,,,,
1618378452.474316,0.000000,0.000000,4294.871582,4247.692383,4198.974121,4174.358887,4263.589844,450.000000,3.000000,55.000000,,,,0.000000,4.000000,4.000000,4.000000,4.000000,4.000000,100.000000,,,,,,,,0.000000,0.000000,0.188806,0.585205,0.172363,-0.769531,1.005386,0.064454,-0.149905,-12.751481,11.340398,59.025875
1618378452.482138,1.000000,0.000000,4292.820313,4245.641113,4196.410156,4178.461426,4266.153809,450.000000,3.000000,55.000000,,,,0.000000,4.000000,4.000000,4.000000,4.000000,4.000000,100.000000,,,,,,,,,,,,,,,,,,,
1618378452.489960,2.000000,0.000000,4289.743652,4241.025879,4197.436035,4181.538574,4258.461426,16224.000000,3.000000,55.000000,,,,0.000000,4.000000,4.000000,4.000000,4.000000,4.000000,100.000000,,,,,,,,1.000000,0.000000,0.188806,0.585205,0.172363,-0.769531,0.994644,0.056641,-0.151369,-12.732455,9.727836,59.643162
1618378452.497679,3.000000,0.000000,4288.205078,4247.179688,4203.589844,4182.563965,4261.538574,450.000000,3.000000,55.000000,,,,0.000000,4.000000,4.000000,4.000000,4.000000,4.000000,100.000000,,,,,,,,,,,,,,,,,,,
1618378452.505498,4.000000,0.000000,4288.717773,4253.333496,4210.769043,4186.666504,4273.846191,16194.000000,3.000000,55.000000,,,,0.000000,4.000000,4.000000,4.000000,4.000000,4.000000,100.000000,,,,,,,,2.000000,0.000000,0.188806,0.585205,0.172363,-0.769531,0.995132,0.046387,-0.149416,-12.775148,8.276528,60.079090
1618378452.513318,5.000000,0.000000,4292.307617,4249.230957,4207.692383,4183.077148,4271.794922,450.000000,3.000000,55.000000,,,,0.000000,4.000000,4.000000,4.000000,4.000000,4.000000,100.000000,,,,,,,,,,,,,,,,,,,
1618378452.521137,6.000000,0.000000,4290.769043,4244.102539,4200.512695,4174.871582,4265.128418,16209.000000,3.000000,55.000000,,,,0.000000,4.000000,4.000000,4.000000,4.000000,4.000000,100.000000,,,,,,,,3.000000,0.000000,0.188582,0.585205,0.172607,-0.769531,0.997086,0.038575,-0.138186,-12.753756,7.030169,60.411610
1618378452.528957,7.000000,0.000000,4278.461426,4246.666504,4197.436035,4173.846191,4255.384766,450.000000,3.000000,55.000000,,,,0.000000,4.000000,4.000000,4.000000,4.000000,4.000000,100.000000,,,,,,,,,,,,,,,,,,,
1618378452.536776,8.000000,0.000000,4277.436035,4250.769043,4201.025879,4178.461426,4244.102539,450.000000,3.000000,55.000000,,,,0.000000,4.000000,4.000000,4.000000,4.000000,4.000000,100.000000,,,,,,,,4.000000,0.000000,0.188582,0.585205,0.172607,-0.769531,0.999039,0.057618,-0.143557,-12.614872,9.736628,58.796787
1618378452.544596,9.000000,0.000000,4289.743652,4250.256348,4207.179688,4182.051270,4249.230957,16197.000000,3.000000,55.000000,,,,0.000000,4.000000,4.000000,4.000000,4.000000,4.000000,100.000000,,,,,,,,,,,,,,,,,,,
1618378452.552316,10.000000,0.000000,4295.384766,4251.794922,4204.615234,4184.615234,4261.025879,450.000000,3.000000,55.000000,,,,0.000000,4.000000,4.000000,4.000000,4.000000,4.000000,100.000000,,,,,,,,5.000000,0.000000,0.189338,0.584961,0.172607,-0.769531,0.988296,0.046876,-0.144045,-12.609508,8.224627,59.377167
1618378452.560136,11.000000,0.000000,4290.769043,4255.897461,4200.512695,4186.153809,4262.051270,16199.000000,3.000000,55.000000,,,,0.000000,4.000000,4.000000,4.000000,4.000000,4.000000,100.000000,,,,,,,,,,,,,,,,,,,
1618378452.567956,12.000000,0.000000,4284.102539,4250.769043,4204.615234,4183.077148,4258.461426,450.000000,3.000000,55.000000,,,,0.000000,4.000000,4.000000,4.000000,4.000000,4.000000,100.000000,,,,,,,,6.000000,0.000000,0.189116,0.584961,0.172852,-0.769531,0.985367,0.052735,-0.145022,-12.724310,10.811640,59.779881
1618378452.575776,13.000000,0.000000,4282.563965,4244.102539,4205.128418,4182.051270,4257.948730,450.000000,3.000000,55.000000,,,,0.000000,4.000000,4.000000,4.000000,4.000000,4.000000,100.000000,,,,,,,,,,,,,,,,,,,
1618378452.583596,14.000000,0.000000,4289.230957,4247.692383,4201.538574,4182.051270,4258.461426,450.000000,3.000000,55.000000,,,,0.000000,4.000000,4.000000,4.000000,4.000000,4.000000,100.000000,,,,,,,,7.000000,0.000000,0.189116,0.584961,0.172852,-0.769531,0.994644,0.065919,-0.145510,-12.827633,9.311768,60.261951
1618378452.591416,15.000000,0.000000,4287.692383,4251.794922,4198.974121,4179.487305,4254.358887,16199.000000,3.000000,55.000000,,,,0.000000,4.000000,4.000000,4.000000,4.000000,4.000000,100.000000,,,,,,,,,,,,,,,,,,,
1618378452.599237,16.000000,0.000000,4272.307617,4246.666504,4189.230957,4172.307617,4238.974121,0.000000,3.000000,55.000000,,,,0.000000,4.000000,4.000000,4.000000,4.000000,4.000000,100.000000,,,,,,,,8.000000,0.000000,0.189338,0.584961,0.172607,-0.769531,1.000015,0.046387,-0.157229,-12.860807,7.842253,60.695816
1618378452.606958,17.000000,0.000000,4262.563965,4238.974121,4176.410156,4162.563965,4227.179688,0.000000,3.000000,55.000000,,,,0.000000,4.000000,4.000000,4.000000,4.000000,4.000000,100.000000,,,,,,,,,,,,,,,,,,,
1618378452.614780,18.000000,0.000000,4267.179688,4234.358887,4177.436035,4157.436035,4228.717773,0.000000,3.000000,55.000000,,,,0.000000,4.000000,4.000000,4.000000,4.000000,4.000000,100.000000,,,,,,,,9.000000,0.000000,0.189338,0.584961,0.172607,-0.769531,0.996109,0.052247,-0.148928,-12.830850,10.407688,61.026478
1618378452.622601,19.000000,0.000000,4271.282227,4236.410156,4184.102539,4159.487305,4232.820313,0.000000,3.000000,55.000000,,,,0.000000,4.000000,4.000000,4.000000,4.000000,4.000000,100.000000,,,,,,,,,,,,,,,,,,,
1618378452.630423,20.000000,0.000000,4273.846191,4243.077148,4188.205078,4166.666504,4241.538574,0.000000,3.000000,55.000000,,,,0.000000,4.000000,4.000000,4.000000,4.000000,4.000000,100.000000,,,,,,,,10.000000,0.000000,0.189338,0.584961,0.172607,-0.769531,0.993667,0.048829,-0.152346,-12.803887,8.828581,61.324074
1618378452.638244,21.000000,0.000000,4278.974121,4244.615234,4194.871582,4173.846191,4248.717773,0.000000,3.000000,55.000000,,,,0.000000,4.000000,4.000000,4.000000,4.000000,4.000000,100.000000,,,,,,,,,,,,,,,,,,,
1618378452.646066,22.000000,0.000000,4277.948730,4242.563965,4197.436035,4175.384766,4243.589844,0.000000,3.000000,55.000000,,,,0.000000,4.000000,4.000000,4.000000,4.000000,4.000000,100.000000,,,,,,,,11.000000,0.000000,0.189338,0.584961,0.172607,-0.769531,0.995132,0.062989,-0.159182,-12.779621,11.295383,61.831173
1618378452.653888,23.000000,0.000000,4262.051270,4244.102539,4192.820313,4166.666504,4237.948730,0.000000,3.000000,55.000000,,,,0.000000,4.000000,4.000000,4.000000,4.000000,4.000000,100.000000,,,,,,,,,,,,,,,,,,,
1618378452.661709,24.000000,0.000000,4254.871582,4251.282227,4194.871582,4160.000000,4239.487305,0.000000,3.000000,55.000000,,,,0.000000,4.000000,4.000000,4.000000,4.000000,4.000000,100.000000,,,,,,,,12.000000,0.000000,0.189323,0.584717,0.172363,-0.769775,0.998062,0.043458,-0.145510,-12.817597,13.515506,62.167931
1618378452.669531,25.000000,0.000000,4271.794922,4258.461426,4209.230957,4169.230957,4246.153809,0.000000,3.000000,55.000000,,,,0.000000,4.000000,4.000000,4.000000,4.000000,4.000000,100.000000,,,,,,,,,,,,,,,,,,,
1618378452.677352,26.000000,0.000000,4285.128418,4256.922852,4216.922852,4177.436035,4254.871582,0.000000,3.000000,55.000000,,,,0.000000,4.000000,4.000000,4.000000,4.000000,4.000000,100.000000,,,,,,,,13.000000,0.000000,0.190312,0.584717,0.172363,-0.769531,1.003433,0.061524,-0.137209,-12.732144,15.513616,62.411198
1618378452.685072,27.000000,0.000000,4280.512695,4251.282227,4212.307617,4176.922852,4262.563965,0.000000,3.000000,55.000000,,,,0.000000,4.000000,4.000000,4.000000,4.000000,4.000000,100.000000,,,,,,,,,,,,,,,,,,,
1618378452.692892,28.000000,0.000000,4272.820313,4248.205078,4202.051270,4168.205078,4254.358887,0.000000,3.000000,55.000000,,,,0.000000,4.000000,4.000000,4.000000,4.000000,4.000000,100.000000,,,,,,,,14.000000,0.000000,0.189323,0.584717,0.172363,-0.769775,0.994156,0.057618,-0.137697,-12.595422,13.543547,62.390877
1618378452.700711,29.000000,0.000000,4251.794922,4232.820313,4179.487305,4143.589844,4228.205078,0.000000,3.000000,55.000000,,,,0.000000,4.000000,4.000000,4.000000,4.000000,4.000000,100.000000,,,,,,,,,,,,,,,,,,,
1618378452.708531,30.000000,0.000000,4224.615234,4211.794922,4159.487305,4126.666504,4207.179688,0.000000,3.000000,55.000000,,,,0.000000,4.000000,4.000000,4.000000,4.000000,4.000000,100.000000,,,,,,,,15.000000,0.000000,0.189100,0.584717,0.172607,-0.769775,1.002457,0.053223,-0.149905,-12.711634,15.359406,62.791294
1618378452.716351,31.000000,0.000000,4226.153809,4217.948730,4164.615234,4143.077148,4210.769043,0.000000,3.000000,55.000000,,,,0.000000,4.000000,4.000000,4.000000,4.000000,4.000000,100.000000,,,,,,,,,,,,,,,,,,,
1618378452.724170,32.000000,0.000000,4250.256348,4235.384766,4181.538574,4160.000000,4224.615234,0.000000,3.000000,55.000000,,,,0.000000,4.000000,4.000000,4.000000,4.000000,4.000000,100.000000,,,,,,,,16.000000,0.000000,0.189100,0.584717,0.172607,-0.769775,1.000992,0.058595,-0.145022,-12.756408,13.524388,62.912407
1618378452.731892,33.000000,0.000000,4261.025879,4233.846191,4183.589844,4160.000000,4229.230957,0.000000,3.000000,55.000000,,,,0.000000,4.000000,4.000000,4.000000,4.000000,4.000000,100.000000,,,,,,,,,,,,,,,,,,,
1618378452.739714,34.000000,0.000000,4256.410156,4225.128418,4177.948730,4162.051270,4229.230957,0.000000,3.000000,55.000000,,,,0.000000,4.000000,4.000000,4.000000,4.000000,4.000000,100.000000,,,,,,,,17.000000,0.000000,0.189100,0.584717,0.172607,-0.769775,0.996597,0.053223,-0.153323,-12.736890,11.813058,63.021412
1618378452.747536,35.000000,0.000000,4258.974121,4228.205078,4183.077148,4165.641113,4227.692383,0.000000,3.000000,55.000000,,,,0.000000,4.000000,4.000000,4.000000,4.000000,4.000000,100.000000,,,,,,,,,,,,,,,,,,,
1618378452.755358,36.000000,0.000000,4264.102539,4236.410156,4194.358887,4166.153809,4223.589844,0.000000,3.000000,55.000000,,,,0.000000,4.000000,4.000000,4.000000,4.000000,4.000000,100.000000,,,,,,,,18.000000,0.000000,0.189083,0.584473,0.172363,-0.770020,0.996109,0.037598,-0.147463,-12.779139,10.153229,63.298962
1618378452.763179,37.000000,0.000000,4259.487305,4238.974121,4195.384766,4169.743652,4226.666504,0.000000,3.000000,55.000000,,,,0.000000,4.000000,4.000000,4.000000,4.000000,4.000000,100.000000,,,,,,,,,,,,,,,,,,,
1618378452.771001,38.000000,0.000000,4257.436035,4239.487305,4190.256348,4171.282227,4233.333496,0.000000,3.000000,55.000000,,,,0.000000,4.000000,4.000000,4.000000,4.000000,4.000000,100.000000,,,,,,,,19.000000,0.000000,0.188861,0.584473,0.172607,-0.770020,0.987808,0.060060,-0.141604,-12.757348,8.539752,63.488937
1618378452.778823,39.000000,0.000000,4266.666504,4247.179688,4196.922852,4176.410156,4236.410156,0.000000,3.000000,55.000000,,,,0.000000,4.000000,4.000000,4.000000,4.000000,4.000000,100.000000,,,,,,,,,,,,,,,,,,,
1618378452.786645,40.000000,0.000000,4268.205078,4255.384766,4209.230957,4190.769043,4237.948730,0.000000,3.000000,55.000000,,,,0.000000,4.000000,4.000000,4.000000,4.000000,4.000000,100.000000,,,,,,,,20.000000,0.000000,0.189100,0.584717,0.172607,-0.769775,0.996597,0.053223,-0.153323,-12.618105,7.147439,63.480473
1618378452.794467,41.000000,0.000000,4251.794922,4248.717773,4206.666504,4189.230957,4232.307617,0.000000,3.000000,55.000000,,,,0.000000,4.000000,4.000000,4.000000,4.000000,4.000000,100.000000,,,,,,,,,,,,,,,,,,,
1618378452.802288,42.000000,0.000000,4251.282227,4236.922852,4200.512695,4178.974121,4225.641113,0.000000,3.000000,55.000000,,,,0.000000,4.000000,4.000000,4.000000,4.000000,4.000000,100.000000,,,,,,,,21.000000,0.000000,0.188861,0.584473,0.172607,-0.770020,0.987808,0.060060,-0.141604,-12.612417,5.834541,63.652302
1618378452.810010,43.000000,0.000000,4261.538574,4234.871582,4201.025879,4181.025879,4232.307617,0.000000,3.000000,55.000000,,,,0.000000,4.000000,4.000000,4.000000,4.000000,4.000000,100.000000,,,,,,,,,,,,,,,,,,,
1618378452.817831,44.000000,0.000000,4249.230957,4233.333496,4196.922852,4178.461426,4230.769043,0.000000,3.000000,55.000000,,,,0.000000,4.000000,4.000000,4.000000,4.000000,4.000000,100.000000,,,,,,,,22.000000,0.000000,0.189614,0.584229,0.172607,-0.770020,0.994644,0.058595,-0.157229,-12.607298,8.600748,63.806946
1618378452.825652,45.000000,0.000000,4234.871582,4227.179688,4192.820313,4167.692383,4213.846191,0.000000,3.000000,55.000000,,,,0.000000,4.000000,4.000000,4.000000,4.000000,4.000000,100.000000,,,,,,,,,,,,,,,,,,,
1618378452.833474,46.000000,0.000000,4246.153809,4230.256348,4197.948730,4169.743652,4213.846191,0.000000,3.000000,55.000000,,,,0.000000,4.000000,4.000000,4.000000,4.000000,4.000000,100.000000,,,,,,,,23.000000,0.000000,0.189614,0.584229,0.172607,-0.770020,0.993179,0.060060,-0.161624,-12.602691,7.202334,63.826496
1618378452.841295,47.000000,0.000000,4258.461426,4242.051270,4194.871582,4176.922852,4227.179688,0.000000,3.000000,55.000000,,,,0.000000,4.000000,4.000000,4.000000,4.000000,4.000000,100.000000,,,,,,,,,,,,,,,,,,,
1618378452.849116,48.000000,0.000000,4250.256348,4244.102539,4177.436035,4170.769043,4226.666504,0.000000,3.000000,55.000000,,,,0.000000,4.000000,4.000000,4.000000,4.000000,4.000000,100.000000,,,,,,,,24.000000,0.000000,0.188397,0.584229,0.172852,-0.770264,0.997574,0.055177,-0.157229,-12.538730,9.831761,61.930000
1618378452.856938,49.000000,0.000000,4242.051270,4238.461426,4167.179688,4162.563965,4223.077148,0.000000,3.000000,55.000000,,,,0.000000,4.000000,4.000000,4.000000,4.000000,4.000000,100.000000,,,,,,,,,,,,,,,,,,,
1618378452.864759,50.000000,0.000000,4240.512695,4236.922852,4167.179688,4158.461426,4218.974121,0.000000,3.000000,55.000000,,,,0.000000,4.000000,4.000000,4.000000,4.000000,4.000000,100.000000,,,,,,,,25.000000,0.000000,0.188397,0.584229,0.172852,-0.770264,0.995132,0.054688,-0.148928,-12.540979,8.310247,62.197060
1618378452.872580,51.000000,0.000000,4238.974121,4236.410156,4170.256348,4154.358887,4210.769043,0.000000,3.000000,55.000000,,,,0.000000,4.000000,4.000000,4.000000,4.000000,4.000000,100.000000,,,,,,,,,,,,,,,,,,,
1618378452.880302,52.000000,0.000000,4245.641113,4232.820313,4181.025879,4157.948730,4221.025879,0.000000,3.000000,55.000000,,,,0.000000,4.000000,4.000000,4.000000,4.000000,4.000000,100.000000,,,,,,,,26.000000,0.000000,0.188397,0.584229,0.172852,-0.770264,0.989273,0.052735,-0.145510,-12.662635,6.940884,60.523319
1618378452.888123,53.000000,0.000000,4257.436035,4230.769043,4184.615234,4164.615234,4243.077148,0.000000,3.000000,55.000000,,,,0.000000,4.000000,4.000000,4.000000,4.000000,4.000000,100.000000,,,,,,,,,,,,,,,,,,,
1618378452.895944,54.000000,0.000000,4261.538574,4229.743652,4178.461426,4162.563965,4245.128418,0.000000,3.000000,55.000000,,,,0.000000,4.000000,4.000000,4.000000,4.000000,4.000000,100.000000,,,,,,,,27.000000,0.000000,0.188397,0.584229,0.172852,-0.770264,0.990738,0.057130,-0.135744,-12.772124,5.708457,60.990864
1618378452.903765,55.000000,0.000000,4257.948730,4233.846191,4180.512695,4163.589844,4234.358887,0.000000,3.000000,55.000000,,,,0.000000,4.000000,4.000000,4.000000,4.000000,4.000000,100.000000,1.000000,100.000000,4.000000,4.000000,4.000000,4.000000,4.000000,,,,,,,,,,,,
1618378452.911586,56.000000,0.000000,4261.025879,4240.000000,4193.333496,4170.256348,4231.794922,0.000000,3.000000,55.000000,,,,0.000000,4.000000,4.000000,4.000000,4.000000,4.000000,100.000000,,,,,,,,28.000000,0.000000,0.188397,0.584229,0.172852,-0.770264,0.993667,0.046387,-0.145510,-12.691219,4.718904,61.292023
1618378452.919407,57.000000,0.000000,4263.077148,4240.000000,4211.794922,4165.128418,4231.794922,0.000000,3.000000,55.000000,,,,0.000000,4.000000,4.000000,4.000000,4.000000,4.000000,100.000000,,,,,,,,,,,,,,,,,,,
1618378452.927228,58.000000,0.000000,4257.948730,4238.461426,4228.717773,4154.871582,4233.333496,0.000000,3.000000,55.000000,,,,0.000000,4.000000,4.000000,4.000000,4.000000,4.000000,100.000000,,,,,,,,29.000000,0.000000,0.188397,0.584229,0.172852,-0.770264,0.997086,0.056641,-0.141115,-12.558589,7.656489,59.828419
1618378452.935049,59.000000,0.000000,4258.461426,4241.025879,4234.871582,4157.948730,4236.410156,0.000000,3.000000,55.000000,,,,0.000000,4.000000,4.000000,4.000000,4.000000,4.000000,100.000000,,,,,,,,,,,,,,,,,,,
1618378452.942870,60.000000,0.000000,4259.487305,4242.563965,4231.282227,4162.051270,4231.282227,0.000000,3.000000,55.000000,,,,0.000000,4.000000,4.000000,4.000000,4.000000,4.000000,100.000000,,,,,,,,30.000000,0.000000,0.188172,0.584229,0.173096,-0.770264,0.995132,0.054688,-0.143069,-12.678484,6.412318,60.305634
1618378452.950592,61.000000,0.000000,4258.974121,4243.077148,4231.794922,4163.077148,4233.846191,0.000000,3.000000,55.000000,,,,0.000000,4.000000,4.000000,4.000000,4.000000,4.000000,100.000000,,,,,,,,,,,,,,,,,,,
1618378452.958413,62.000000,0.000000,4266.153809,4248.717773,4237.948730,4173.333496,4251.794922,0.000000,3.000000,55.000000,,,,0.000000,4.000000,4.000000,4.000000,4.000000,4.000000,100.000000,,,,,,,,31.000000,0.000000,0.188172,0.584229,0.173096,-0.770264,0.981460,0.050782,-0.141604,-12.666759,9.180562,58.821041
1618378452.966234,63.000000,0.000000,4280.000000,4247.179688,4244.102539,4181.025879,4265.641113,0.000000,3.000000,55.000000,,,,0.000000,4.000000,4.000000,4.000000,4.000000,4.000000,100.000000,,,,,,,,,,,,,,,,,,,
1618378452.974056,64.000000,0.000000,4286.666504,4240.000000,4246.153809,4183.589844,4266.153809,450.000000,3.000000,55.000000,,,,0.000000,4.000000,4.000000,4.000000,4.000000,4.000000,100.000000,,,,,,,,32.000000,0.000000,0.188929,0.583984,0.173096,-0.770264,0.988785,0.067872,-0.147951,-12.656205,7.724167,59.279366
1618378452.981877,65.000000,0.000000,4281.025879,4238.974121,4244.102539,4190.769043,4262.051270,450.000000,3.000000,55.000000,,,,0.000000,4.000000,4.000000,4.000000,4.000000,4.000000,100.000000,,,,,,,,,,,,,,,,,,,
