title:S12, start timestamp:1618378639.746231, stop timestamp:1618378750.330692, headset type:INSIGHT, headset serial:A2D202F3, headset firmware:932, channels:40, sampling rate:eeg_128;mot_64, samples:14150     , version:2.1, 
Timestamp,EEG.Counter,EEG.Interpolated,EEG.AF3,EEG.T7,EEG.Pz,EEG.T8,EEG.AF4,EEG.RawCq,EEG.Battery,EEG.BatteryPercent,MarkerIndex,MarkerType,MarkerValueInt,EEG.MarkerHardware,CQ.AF3,CQ.T7,CQ.Pz,CQ.T8,CQ.AF4,CQ.Overall,EQ.SampleRateQuality,EQ.OVERALL,EQ.AF3,EQ.T7,EQ.Pz,EQ.T8,EQ.AF4,MOT.CounterMems,MOT.InterpolatedMems,MOT.Q0,MOT.Q1,MOT.Q2,MOT.Q3,MOT.AccX,MOT.AccY,MOT.AccZ,MOT.MagX,MOT.MagY,MOT.MagZ
1618378639.746231,37.000000,0.000000,4142.051270,4136.922852,4045.641113,4040.000000,4123.077148,0.000000,3.000000,55.000000,,,,0.000000,4.000000,4.000000,4.000000,4.000000,4.000000,100.000000,,,,,,,,,,,,,,,,,,,
1618378639.753948,38.000000,0.000000,4146.666504,4132.307617,4050.256348,4052.820557,4122.051270,0.000000,3.000000,55.000000,,,,0.000000,4.000000,4.000000,4.000000,4.000000,4.000000,100.000000,,,,,,,,19.000000,0.000000,0.227194,0.616699,0.231445,-0.717285,0.993667,0.053712,-0.130861,-12.047134,13.534678,57.489193
1618378639.761765,39.000000,0.000000,4157.948730,4139.487305,4063.076904,4066.153809,4124.615234,0.000000,3.000000,55.000000,,,,0.000000,4.000000,4.000000,4.000000,4.000000,4.000000,100.000000,,,,,,,,,,,,,,,,,,,
1618378639.769583,40.000000,0.000000,4164.615234,4151.794922,4064.102539,4046.666748,4139.487305,0.000000,3.000000,55.000000,,,,0.000000,4.000000,4.000000,4.000000,4.000000,4.000000,100.000000,,,,,,,,20.000000,0.000000,0.227194,0.616699,0.231445,-0.717285,1.000504,0.068849,-0.136233,-11.919097,11.523240,58.200333
1618378639.777400,41.000000,0.000000,4162.563965,4143.589844,4052.820557,4032.307617,4145.128418,0.000000,3.000000,55.000000,,,,0.000000,4.000000,4.000000,4.000000,4.000000,4.000000,100.000000,,,,,,,,,,,,,,,,,,,
1618378639.785217,42.000000,0.000000,4161.025879,4138.974121,4052.307617,4044.102539,4141.538574,0.000000,3.000000,55.000000,,,,0.000000,4.000000,4.000000,4.000000,4.000000,4.000000,100.000000,,,,,,,,21.000000,0.000000,0.226422,0.616699,0.231445,-0.717529,1.000015,0.061036,-0.125002,-11.923494,9.892393,58.720726
1618378639.793034,43.000000,0.000000,4163.077148,4148.205078,4064.102539,4052.307617,4146.153809,0.000000,3.000000,55.000000,,,,0.000000,4.000000,4.000000,4.000000,4.000000,4.000000,100.000000,,,,,,,,,,,,,,,,,,,
1618378639.800852,44.000000,0.000000,4164.102539,4148.205078,4069.743652,4055.897461,4145.641113,0.000000,3.000000,55.000000,,,,0.000000,4.000000,4.000000,4.000000,4.000000,4.000000,100.000000,,,,,,,,22.000000,0.000000,0.226671,0.616699,0.231201,-0.717529,0.999527,0.052735,-0.131350,-11.987267,8.364816,59.428345
1618378639.808669,45.000000,0.000000,4158.461426,4138.974121,4066.153809,4053.333252,4136.922852,0.000000,3.000000,55.000000,,,,0.000000,4.000000,4.000000,4.000000,4.000000,4.000000,100.000000,,,,,,,,,,,,,,,,,,,
1618378639.816387,46.000000,0.000000,4147.692383,4128.205078,4059.487061,4034.871826,4134.358887,0.000000,3.000000,55.000000,,,,0.000000,4.000000,4.000000,4.000000,4.000000,4.000000,100.000000,,,,,,,,23.000000,0.000000,0.226671,0.616699,0.231201,-0.717529,0.990738,0.052247,-0.143069,-11.984848,7.049811,60.065201
1618378639.824204,47.000000,0.000000,4142.563965,4126.666504,4057.948730,4027.179443,4133.333496,0.000000,3.000000,55.000000,,,,0.000000,4.000000,4.000000,4.000000,4.000000,4.000000,100.000000,,,,,,,,,,,,,,,,,,,
1618378639.832022,48.000000,0.000000,4145.641113,4140.000000,4064.615479,4045.128174,4129.230957,0.000000,3.000000,55.000000,,,,0.000000,4.000000,4.000000,4.000000,4.000000,4.000000,100.000000,,,,,,,,24.000000,0.000000,0.226671,0.616699,0.231201,-0.717529,0.995132,0.054688,-0.126955,-11.982671,9.515044,60.458923
1618378639.839840,49.000000,0.000000,4144.615234,4142.563965,4071.281982,4059.487061,4127.692383,0.000000,3.000000,55.000000,,,,0.000000,4.000000,4.000000,4.000000,4.000000,4.000000,100.000000,,,,,,,,,,,,,,,,,,,
1618378639.847658,50.000000,0.000000,4145.128418,4136.410156,4072.820557,4054.358887,4131.794922,0.000000,3.000000,55.000000,,,,0.000000,4.000000,4.000000,4.000000,4.000000,4.000000,100.000000,,,,,,,,25.000000,0.000000,0.226920,0.616699,0.230957,-0.717529,1.002457,0.061036,-0.140627,-11.980711,8.085017,60.932907
1618378639.855475,51.000000,0.000000,4152.820313,4146.153809,4065.641113,4046.153809,4137.436035,0.000000,3.000000,55.000000,,,,0.000000,4.000000,4.000000,4.000000,4.000000,4.000000,100.000000,,,,,,,,,,,,,,,,,,,
1618378639.863293,52.000000,0.000000,4150.769043,4155.897461,4058.974365,4044.615479,4131.794922,0.000000,3.000000,55.000000,,,,0.000000,4.000000,4.000000,4.000000,4.000000,4.000000,100.000000,,,,,,,,26.000000,0.000000,0.226920,0.616699,0.230957,-0.717529,1.004898,0.061524,-0.129397,-11.859317,10.745807,59.385586
1618378639.871111,53.000000,0.000000,4140.000000,4146.666504,4061.025635,4034.871826,4116.410156,0.000000,3.000000,55.000000,,,,0.000000,4.000000,4.000000,4.000000,4.000000,4.000000,100.000000,,,,,,,,,,,,,,,,,,,
1618378639.878929,54.000000,0.000000,4140.000000,4140.512695,4063.076904,4023.589844,4111.794922,0.000000,3.000000,55.000000,,,,0.000000,4.000000,4.000000,4.000000,4.000000,4.000000,100.000000,,,,,,,,27.000000,0.000000,0.226920,0.616699,0.230957,-0.717529,0.996109,0.049317,-0.126955,-12.049138,9.192703,59.847271
1618378639.886647,55.000000,0.000000,4146.153809,4148.205078,4058.974365,4025.641113,4114.871582,0.000000,3.000000,55.000000,,,,0.000000,4.000000,4.000000,4.000000,4.000000,4.000000,100.000000,0.972656,100.000000,4.000000,4.000000,4.000000,4.000000,4.000000,,,,,,,,,,,,
1618378639.894464,56.000000,0.000000,4147.179688,4149.230957,4050.256348,4031.281982,4111.794922,0.000000,3.000000,55.000000,,,,0.000000,4.000000,4.000000,4.000000,4.000000,4.000000,100.000000,,,,,,,,28.000000,0.000000,0.226504,0.616943,0.230713,-0.717529,0.996597,0.063966,-0.133791,-12.160163,7.854725,60.382420
1618378639.902282,57.000000,0.000000,4146.153809,4140.000000,4046.666748,4031.794922,4111.282227,0.000000,3.000000,55.000000,,,,0.000000,4.000000,4.000000,4.000000,4.000000,4.000000,100.000000,,,,,,,,,,,,,,,,,,,
1618378639.910100,58.000000,0.000000,4149.743652,4138.461426,4055.897461,4038.461426,4119.487305,0.000000,3.000000,55.000000,,,,0.000000,4.000000,4.000000,4.000000,4.000000,4.000000,100.000000,,,,,,,,29.000000,0.000000,0.227168,0.616699,0.230713,-0.717529,0.995132,0.050782,-0.129885,-12.140453,6.590730,60.624790
1618378639.917918,59.000000,0.000000,4152.307617,4146.666504,4067.692383,4043.076904,4121.025879,0.000000,3.000000,55.000000,,,,0.000000,4.000000,4.000000,4.000000,4.000000,4.000000,100.000000,,,,,,,,,,,,,,,,,,,
1618378639.925735,60.000000,0.000000,4148.717773,4142.051270,4066.153809,4037.435791,4112.820313,0.000000,3.000000,55.000000,,,,0.000000,4.000000,4.000000,4.000000,4.000000,4.000000,100.000000,,,,,,,,30.000000,0.000000,0.227168,0.616699,0.230713,-0.717529,1.000992,0.040040,-0.138186,-11.943270,5.333503,61.022369
1618378639.933553,61.000000,0.000000,4143.589844,4132.820313,4054.871826,4041.025635,4111.282227,0.000000,3.000000,55.000000,,,,0.000000,4.000000,4.000000,4.000000,4.000000,4.000000,100.000000,,,,,,,,,,,,,,,,,,,
1618378639.941371,62.000000,0.000000,4145.128418,4148.717773,4056.410156,4027.692383,4115.897461,0.000000,3.000000,55.000000,,,,0.000000,4.000000,4.000000,4.000000,4.000000,4.000000,100.000000,,,,,,,,31.000000,0.000000,0.226504,0.616943,0.230713,-0.717529,0.996597,0.063966,-0.133791,-11.885434,4.201999,61.380192
1618378639.949189,63.000000,0.000000,4151.282227,4150.256348,4065.128174,4006.666748,4118.461426,0.000000,3.000000,55.000000,,,,0.000000,4.000000,4.000000,4.000000,4.000000,4.000000,100.000000,,,,,,,,,,,,,,,,,,,
1618378639.957006,64.000000,0.000000,4149.743652,4125.128418,4064.615479,4023.589844,4116.410156,450.000000,3.000000,55.000000,,,,0.000000,4.000000,4.000000,4.000000,4.000000,4.000000,100.000000,,,,,,,,32.000000,0.000000,0.227168,0.616699,0.230713,-0.717529,1.000992,0.040040,-0.138186,-11.713753,3.183645,61.702232
1618378639.964723,65.000000,0.000000,4141.025879,4126.153809,4058.974365,4043.589844,4109.743652,450.000000,3.000000,55.000000,,,,0.000000,4.000000,4.000000,4.000000,4.000000,4.000000,100.000000,,,,,,,,,,,,,,,,,,,
1618378639.972540,66.000000,0.000000,4134.358887,4141.538574,4054.871826,4031.794922,4104.102539,16220.000000,3.000000,55.000000,,,,0.000000,4.000000,4.000000,4.000000,4.000000,4.000000,100.000000,,,,,,,,33.000000,0.000000,0.227168,0.616699,0.230713,-0.717529,0.994156,0.063966,-0.132326,-11.678869,6.214942,60.018162
1618378639.980357,67.000000,0.000000,4132.820313,4131.794922,4050.256348,4019.487061,4103.589844,450.000000,3.000000,55.000000,,,,0.000000,4.000000,4.000000,4.000000,4.000000,4.000000,100.000000,,,,,,,,,,,,,,,,,,,
1618378639.988174,68.000000,0.000000,4132.820313,4124.102539,4047.692383,4026.153809,4101.025879,16218.000000,3.000000,55.000000,,,,0.000000,4.000000,4.000000,4.000000,4.000000,4.000000,100.000000,,,,,,,,34.000000,0.000000,0.227416,0.616699,0.230469,-0.717529,0.994644,0.057130,-0.142092,-11.707290,8.943108,60.296959
1618378639.995990,69.000000,0.000000,4133.333496,4131.794922,4045.641113,4033.846191,4096.922852,450.000000,3.000000,55.000000,,,,0.000000,4.000000,4.000000,4.000000,4.000000,4.000000,100.000000,,,,,,,,,,,,,,,,,,,
1618378640.003708,70.000000,0.000000,4132.307617,4129.743652,4044.615479,4032.820557,4098.461426,16198.000000,3.000000,55.000000,,,,0.000000,4.000000,4.000000,4.000000,4.000000,4.000000,100.000000,,,,,,,,35.000000,0.000000,0.227416,0.616699,0.230469,-0.717529,0.993179,0.050782,-0.137697,-11.792684,11.458273,60.727322
1618378640.011526,71.000000,0.000000,4130.256348,4124.102539,4045.641113,4022.051270,4100.000000,450.000000,3.000000,55.000000,,,,0.000000,4.000000,4.000000,4.000000,4.000000,4.000000,100.000000,,,,,,,,,,,,,,,,,,,
1618378640.019344,72.000000,0.000000,4125.128418,4121.025879,4039.487061,4016.923096,4095.897461,450.000000,3.000000,55.000000,,,,0.000000,4.000000,4.000000,4.000000,4.000000,4.000000,100.000000,,,,,,,,36.000000,0.000000,0.227416,0.616699,0.230469,-0.717529,0.989761,0.052735,-0.140139,-11.809722,9.833922,60.995018
1618378640.027161,73.000000,0.000000,4117.948730,4115.897461,4029.743652,4023.589844,4092.307617,16217.000000,3.000000,55.000000,,,,0.000000,4.000000,4.000000,4.000000,4.000000,4.000000,100.000000,,,,,,,,,,,,,,,,,,,
1618378640.034979,74.000000,0.000000,4114.358887,4114.358887,4028.718018,4022.564209,4093.846191,450.000000,3.000000,55.000000,,,,0.000000,4.000000,4.000000,4.000000,4.000000,4.000000,100.000000,,,,,,,,37.000000,0.000000,0.227663,0.616699,0.230225,-0.717529,0.996597,0.063478,-0.136721,-11.825057,8.431823,61.475208
1618378640.042797,75.000000,0.000000,4118.974121,4110.769043,4037.948730,4009.230713,4104.615234,16226.000000,3.000000,55.000000,,,,0.000000,4.000000,4.000000,4.000000,4.000000,4.000000,100.000000,,,,,,,,,,,,,,,,,,,
1618378640.050615,76.000000,0.000000,4124.615234,4113.333496,4045.128174,4005.128174,4113.333496,450.000000,3.000000,55.000000,,,,0.000000,4.000000,4.000000,4.000000,4.000000,4.000000,100.000000,,,,,,,,38.000000,0.000000,0.227663,0.616699,0.230225,-0.717529,0.990738,0.058106,-0.143557,-11.838859,7.110117,61.967194
1618378640.058432,77.000000,0.000000,4110.769043,4117.436035,4033.846191,4004.615479,4099.487305,450.000000,3.000000,55.000000,,,,0.000000,4.000000,4.000000,4.000000,4.000000,4.000000,100.000000,,,,,,,,,,,,,,,,,,,
1618378640.066250,78.000000,0.000000,4088.205078,4113.846191,4021.538574,4003.076904,4078.974365,450.000000,3.000000,55.000000,,,,0.000000,4.000000,4.000000,4.000000,4.000000,4.000000,100.000000,,,,,,,,39.000000,0.000000,0.227663,0.616699,0.230225,-0.717529,0.989761,0.051759,-0.137697,-11.791465,5.920583,62.170719
1618378640.074068,79.000000,0.000000,4095.384521,4118.974121,4035.897461,4018.974365,4086.666748,16226.000000,3.000000,55.000000,,,,0.000000,4.000000,4.000000,4.000000,4.000000,4.000000,100.000000,,,,,,,,,,,,,,,,,,,
1618378640.081785,80.000000,0.000000,4121.538574,4130.256348,4057.948730,4038.974365,4110.769043,450.000000,3.000000,55.000000,,,,0.000000,4.000000,4.000000,4.000000,4.000000,4.000000,100.000000,,,,,,,,40.000000,0.000000,0.227910,0.616699,0.229980,-0.717529,1.000992,0.051270,-0.147951,-11.868442,8.618370,60.439796
1618378640.089601,81.000000,0.000000,4129.743652,4132.307617,4063.589844,4041.025635,4122.051270,450.000000,3.000000,55.000000,,,,0.000000,4.000000,4.000000,4.000000,4.000000,4.000000,100.000000,,,,,,,,,,,,,,,,,,,
1618378640.097418,82.000000,0.000000,4123.077148,4133.846191,4056.410156,4037.435791,4121.025879,450.000000,3.000000,55.000000,,,,0.000000,4.000000,4.000000,4.000000,4.000000,4.000000,100.000000,,,,,,,,41.000000,0.000000,0.227910,0.616699,0.229980,-0.717529,0.997086,0.042969,-0.132326,-11.818089,7.278010,60.736248
1618378640.105234,83.000000,0.000000,4116.410156,4126.666504,4049.743652,4032.820557,4110.256348,16226.000000,3.000000,55.000000,,,,0.000000,4.000000,4.000000,4.000000,4.000000,4.000000,100.000000,,,,,,,,,,,,,,,,,,,
1618378640.112952,84.000000,0.000000,4113.846191,4113.846191,4048.718018,4008.205078,4102.563965,450.000000,3.000000,55.000000,,,,0.000000,4.000000,4.000000,4.000000,4.000000,4.000000,100.000000,,,,,,,,42.000000,0.000000,0.227910,0.616699,0.229980,-0.717529,1.004410,0.050294,-0.136233,-11.832587,10.019500,59.268406
1618378640.120770,85.000000,0.000000,4116.410156,4121.538574,4052.307617,4009.230713,4113.333496,450.000000,3.000000,55.000000,,,,0.000000,4.000000,4.000000,4.000000,4.000000,4.000000,100.000000,,,,,,,,,,,,,,,,,,,
1618378640.128588,86.000000,0.000000,4109.743652,4130.256348,4052.820557,4037.435791,4114.871582,450.000000,3.000000,55.000000,,,,0.000000,4.000000,4.000000,4.000000,4.000000,4.000000,100.000000,,,,,,,,43.000000,0.000000,0.227139,0.616699,0.229980,-0.717773,0.998550,0.058106,-0.134279,-11.905452,8.479212,59.861439
1618378640.136405,87.000000,0.000000,4100.000000,4117.436035,4049.743652,4031.281982,4098.461426,16226.000000,3.000000,55.000000,,,,0.000000,4.000000,4.000000,4.000000,4.000000,4.000000,100.000000,,,,,,,,,,,,,,,,,,,
1618378640.144223,88.000000,0.000000,4104.615234,4110.256348,4052.820557,4013.846191,4096.410156,450.000000,3.000000,55.000000,,,,0.000000,4.000000,4.000000,4.000000,4.000000,4.000000,100.000000,,,,,,,,44.000000,0.000000,0.227139,0.616699,0.229980,-0.717773,0.968277,0.054688,-0.131838,-11.851398,7.272398,58.361450
1618378640.152041,89.000000,0.000000,4117.436035,4116.922852,4062.051270,4031.281982,4114.871582,450.000000,3.000000,55.000000,,,,0.000000,4.000000,4.000000,4.000000,4.000000,4.000000,100.000000,,,,,,,,,,,,,,,,,,,
1618378640.159859,90.000000,0.000000,4122.563965,4117.948730,4067.692383,4048.205078,4125.128418,450.000000,3.000000,55.000000,,,,0.000000,4.000000,4.000000,4.000000,4.000000,4.000000,100.000000,,,,,,,,45.000000,0.000000,0.227801,0.616455,0.229980,-0.717773,1.013199,0.041505,-0.146487,-11.862566,6.186266,57.071270
1618378640.167676,91.000000,0.000000,4112.307617,4115.897461,4062.051270,4025.641113,4113.846191,16226.000000,3.000000,55.000000,,,,0.000000,4.000000,4.000000,4.000000,4.000000,4.000000,100.000000,,,,,,,,,,,,,,,,,,,
1618378640.175494,92.000000,0.000000,4100.512695,4115.897461,4048.718018,4007.692383,4100.512695,450.000000,3.000000,55.000000,,,,0.000000,4.000000,4.000000,4.000000,4.000000,4.000000,100.000000,,,,,,,,46.000000,0.000000,0.227139,0.616699,0.229980,-0.717773,1.003922,0.065919,-0.134279,-11.812801,4.969486,57.824203
1618378640.183212,93.000000,0.000000,4107.179688,4124.102539,4051.794922,4020.000000,4101.025879,450.000000,3.000000,55.000000,,,,0.000000,4.000000,4.000000,4.000000,4.000000,4.000000,100.000000,,,,,,,,,,,,,,,,,,,
1618378640.191030,94.000000,0.000000,4121.538574,4137.948730,4068.718018,4028.205078,4112.820313,450.000000,3.000000,55.000000,,,,0.000000,4.000000,4.000000,4.000000,4.000000,4.000000,100.000000,,,,,,,,47.000000,0.000000,0.227139,0.616699,0.229980,-0.717773,1.004898,0.058595,-0.133791,-11.947459,3.994015,58.442028
1618378640.198847,95.000000,0.000000,4126.666504,4143.589844,4076.923096,4031.794922,4124.615234,16226.000000,3.000000,55.000000,,,,0.000000,4.000000,4.000000,4.000000,4.000000,4.000000,100.000000,,,,,,,,,,,,,,,,,,,
1618378640.206665,96.000000,0.000000,4128.205078,4148.205078,4082.051270,4048.718018,4129.230957,450.000000,3.000000,55.000000,,,,0.000000,4.000000,4.000000,4.000000,4.000000,4.000000,100.000000,,,,,,,,48.000000,0.000000,0.227139,0.616699,0.229980,-0.717773,1.002457,0.041016,-0.130373,-11.889205,3.355352,59.117699
1618378640.214483,97.000000,0.000000,4126.666504,4149.230957,4083.589844,4054.358887,4123.077148,450.000000,3.000000,55.000000,,,,0.000000,4.000000,4.000000,4.000000,4.000000,4.000000,100.000000,,,,,,,,,,,,,,,,,,,
1618378640.222301,98.000000,0.000000,4111.794922,4137.436035,4073.333252,4028.205078,4112.307617,450.000000,3.000000,55.000000,,,,0.000000,4.000000,4.000000,4.000000,4.000000,4.000000,100.000000,,,,,,,,49.000000,0.000000,0.227495,0.616943,0.229736,-0.717529,0.998550,0.046876,-0.137209,-11.896592,6.249846,57.751896
1618378640.230118,99.000000,0.000000,4103.077148,4128.717773,4065.641113,4016.410156,4113.333496,16226.000000,3.000000,55.000000,,,,0.000000,4.000000,4.000000,4.000000,4.000000,4.000000,100.000000,,,,,,,,,,,,,,,,,,,
1618378640.237936,100.000000,0.000000,4108.717773,4137.436035,4068.718018,4026.666748,4116.922852,450.000000,3.000000,55.000000,,,,0.000000,4.000000,4.000000,4.000000,4.000000,4.000000,100.000000,,,,,,,,50.000000,0.000000,0.227495,0.616943,0.229736,-0.717529,0.995621,0.048341,-0.134279,-11.963056,8.854892,58.317135
1618378640.245754,101.000000,0.000000,4116.410156,4145.641113,4070.769287,4031.281982,4115.897461,450.000000,3.000000,55.000000,,,,0.000000,4.000000,4.000000,4.000000,4.000000,4.000000,100.000000,,,,,,,,,,,,,,,,,,,
1618378640.253472,102.000000,0.000000,4115.384766,4143.589844,4070.769287,4037.948730,4118.461426,450.000000,3.000000,55.000000,,,,0.000000,4.000000,4.000000,4.000000,4.000000,4.000000,100.000000,,,,,,,,51.000000,0.000000,0.227495,0.616943,0.229736,-0.717529,0.993179,0.055665,-0.133791,-11.903242,11.259248,57.091206
1618378640.261289,103.000000,0.000000,4120.512695,4138.974121,4072.820557,4042.051270,4126.666504,16226.000000,3.000000,55.000000,,,,0.000000,4.000000,4.000000,4.000000,4.000000,4.000000,100.000000,,,,,,,,,,,,,,,,,,,
1618378640.269107,104.000000,0.000000,4138.461426,4133.846191,4064.615479,4034.871826,4128.717773,450.000000,3.000000,55.000000,,,,0.000000,4.000000,4.000000,4.000000,4.000000,4.000000,100.000000,,,,,,,,52.000000,0.000000,0.227495,0.616943,0.229736,-0.717529,0.986831,0.047364,-0.126467,-11.849409,13.423168,55.987869
1618378640.276925,105.000000,0.000000,4142.563965,4127.692383,4051.794922,4019.487061,4126.153809,450.000000,3.000000,55.000000,,,,0.000000,4.000000,4.000000,4.000000,4.000000,4.000000,100.000000,,,,,,,,,,,,,,,,,,,
1618378640.284743,106.000000,0.000000,4133.333496,4127.179688,4048.205078,4016.923096,4127.692383,450.000000,3.000000,55.000000,,,,0.000000,4.000000,4.000000,4.000000,4.000000,4.000000,100.000000,,,,,,,,53.000000,0.000000,0.227495,0.616943,0.229736,-0.717529,0.992691,0.040040,-0.130861,-11.681330,11.542513,54.935051
1618378640.292560,107.000000,0.000000,4131.282227,4130.256348,4044.102539,4029.230713,4124.102539,16226.000000,3.000000,55.000000,,,,0.000000,4.000000,4.000000,4.000000,4.000000,4.000000,100.000000,,,,,,,,,,,,,,,,,,,
1618378640.300378,108.000000,0.000000,4127.692383,4129.743652,4032.307617,4020.512939,4106.666504,450.000000,3.000000,55.000000,,,,0.000000,4.000000,4.000000,4.000000,4.000000,4.000000,100.000000,,,,,,,,54.000000,0.000000,0.227495,0.616943,0.229736,-0.717529,0.990250,0.049317,-0.138674,-11.769320,10.029369,55.841789
1618378640.308196,109.000000,0.000000,4118.974121,4128.205078,4028.718018,4004.615479,4089.743652,450.000000,3.000000,55.000000,,,,0.000000,4.000000,4.000000,4.000000,4.000000,4.000000,100.000000,,,,,,,,,,,,,,,,,,,
1618378640.316014,110.000000,0.000000,4118.461426,4120.512695,4036.410156,4016.410156,4090.769287,450.000000,3.000000,55.000000,,,,0.000000,4.000000,4.000000,4.000000,4.000000,4.000000,100.000000,,,,,,,,55.000000,0.000000,0.227495,0.616943,0.229736,-0.717529,0.999039,0.047852,-0.132326,-11.788695,8.428279,56.837299
1618378640.323732,111.000000,0.000000,4117.436035,4110.769043,4042.051270,4030.256348,4093.846191,16226.000000,3.000000,55.000000,,,,0.000000,4.000000,4.000000,4.000000,4.000000,4.000000,100.000000,,,,,,,,,,,,,,,,,,,
1618378640.331550,112.000000,0.000000,4114.871582,4122.563965,4045.641113,4018.974365,4092.820557,450.000000,3.000000,55.000000,,,,0.000000,4.000000,4.000000,4.000000,4.000000,4.000000,100.000000,,,,,,,,56.000000,0.000000,0.227386,0.616699,0.229736,-0.717773,0.988785,0.043458,-0.146975,-11.806132,11.054742,55.639721
1618378640.339368,113.000000,0.000000,4117.948730,4140.000000,4052.307617,4026.153809,4096.922852,450.000000,3.000000,55.000000,,,,0.000000,4.000000,4.000000,4.000000,4.000000,4.000000,100.000000,,,,,,,,,,,,,,,,,,,
1618378640.347186,114.000000,0.000000,4114.358887,4132.307617,4054.871826,4055.384521,4101.538574,450.000000,3.000000,55.000000,,,,0.000000,4.000000,4.000000,4.000000,4.000000,4.000000,100.000000,,,,,,,,57.000000,0.000000,0.227386,0.616699,0.229736,-0.717773,1.003433,0.047364,-0.145998,-11.821827,9.351114,56.535809
1618378640.355004,115.000000,0.000000,4110.256348,4126.153809,4052.307617,4053.846191,4102.051270,16226.000000,3.000000,55.000000,,,,0.000000,4.000000,4.000000,4.000000,4.000000,4.000000,100.000000,,,,,,,,,,,,,,,,,,,
1618378640.362822,116.000000,0.000000,4117.948730,4134.871582,4056.923096,4035.897461,4102.051270,450.000000,3.000000,55.000000,,,,0.000000,4.000000,4.000000,4.000000,4.000000,4.000000,100.000000,,,,,,,,58.000000,0.000000,0.227386,0.616699,0.229736,-0.717773,1.000504,0.052735,-0.137697,-11.716321,7.937480,57.402103
1618378640.370640,117.000000,0.000000,4120.512695,4134.871582,4060.000000,4044.102539,4100.512695,450.000000,3.000000,55.000000,,,,0.000000,4.000000,4.000000,4.000000,4.000000,4.000000,100.000000,,,,,,,,,,,,,,,,,,,
1618378640.378458,118.000000,0.000000,4111.282227,4125.641113,4053.333252,4058.974365,4097.436035,450.000000,3.000000,55.000000,,,,0.000000,4.000000,4.000000,4.000000,4.000000,4.000000,100.000000,,,,,,,,59.000000,0.000000,0.227633,0.616699,0.229492,-0.717773,0.991714,0.055665,-0.139162,-11.800811,10.613023,58.121952
1618378640.386276,119.000000,0.000000,4108.717773,4119.487305,4053.846191,4046.666748,4097.948730,16226.000000,3.000000,55.000000,,,,0.000000,4.000000,4.000000,4.000000,4.000000,4.000000,100.000000,0.996094,100.000000,4.000000,4.000000,4.000000,4.000000,4.000000,,,,,,,,,,,,
1618378640.394094,120.000000,0.000000,4116.410156,4124.102539,4061.538574,4045.128174,4102.051270,450.000000,3.000000,55.000000,,,,0.000000,4.000000,4.000000,4.000000,4.000000,4.000000,100.000000,,,,,,,,60.000000,0.000000,0.226862,0.616699,0.229492,-0.718018,1.013199,0.051270,-0.139651,-11.637591,12.841566,56.795910
1618378640.401811,121.000000,0.000000,4117.436035,4133.846191,4062.051270,4051.794922,4106.153809,450.000000,3.000000,55.000000,,,,0.000000,4.000000,4.000000,4.000000,4.000000,4.000000,100.000000,,,,,,,,,,,,,,,,,,,
1618378640.409629,122.000000,0.000000,4110.769043,4133.333496,4062.564209,4029.743652,4108.205078,450.000000,3.000000,55.000000,,,,0.000000,4.000000,4.000000,4.000000,4.000000,4.000000,100.000000,,,,,,,,61.000000,0.000000,0.227386,0.616699,0.229736,-0.717773,1.000504,0.052735,-0.137697,-11.610324,14.907070,55.602470
1618378640.417447,123.000000,0.000000,4111.282227,4127.692383,4065.128174,4027.179443,4108.205078,16226.000000,3.000000,55.000000,,,,0.000000,4.000000,4.000000,4.000000,4.000000,4.000000,100.000000,,,,,,,,,,,,,,,,,,,
1618378640.425265,124.000000,0.000000,4113.846191,4129.743652,4064.102539,4053.846191,4105.641113,450.000000,3.000000,55.000000,,,,0.000000,4.000000,4.000000,4.000000,4.000000,4.000000,100.000000,,,,,,,,62.000000,0.000000,0.226862,0.616699,0.229492,-0.718018,1.013199,0.051270,-0.139651,-11.466153,16.706207,54.528378
1618378640.433082,125.000000,0.000000,4112.820313,4131.282227,4065.641113,4056.410156,4098.461426,450.000000,3.000000,55.000000,,,,0.000000,4.000000,4.000000,4.000000,4.000000,4.000000,100.000000,,,,,,,,,,,,,,,,,,,
1618378640.440900,126.000000,0.000000,4112.307617,4128.717773,4065.128174,4038.974365,4092.820557,450.000000,3.000000,55.000000,,,,0.000000,4.000000,4.000000,4.000000,4.000000,4.000000,100.000000,,,,,,,,63.000000,0.000000,0.226862,0.616699,0.229492,-0.718018,0.998062,0.067384,-0.144533,-11.456030,14.497249,55.415966
1618378640.448718,127.000000,0.000000,4113.333496,4136.410156,4056.410156,4036.410156,4092.820557,234.000000,3.000000,55.000000,,,,0.000000,4.000000,4.000000,4.000000,4.000000,4.000000,100.000000,,,,,,,,,,,,,,,,,,,
1618378640.456536,0.000000,0.000000,4114.358887,4146.666504,4050.256348,4040.512939,4092.820557,450.000000,3.000000,55.000000,,,,0.000000,4.000000,4.000000,4.000000,4.000000,4.000000,100.000000,,,,,,,,0.000000,0.000000,0.227524,0.616455,0.229492,-0.718018,1.001968,0.057130,-0.132815,-11.626365,16.516815,56.274616
1618378640.464454,1.000000,0.000000,4117.948730,4138.974121,4052.307617,4038.974365,4088.718018,450.000000,3.000000,55.000000,,,,0.000000,4.000000,4.000000,4.000000,4.000000,4.000000,100.000000,,,,,,,,,,,,,,,,,,,
1618378640.472271,2.000000,0.000000,4122.051270,4131.794922,4052.307617,4044.615479,4090.769287,16226.000000,3.000000,55.000000,,,,0.000000,4.000000,4.000000,4.000000,4.000000,4.000000,100.000000,,,,,,,,1.000000,0.000000,0.227524,0.616455,0.229492,-0.718018,0.990738,0.069337,-0.134279,-11.719851,14.326796,57.107212
1618378640.480089,3.000000,0.000000,4120.000000,4146.666504,4054.871826,4049.230713,4100.000000,450.000000,3.000000,55.000000,,,,0.000000,4.000000,4.000000,4.000000,4.000000,4.000000,100.000000,,,,,,,,,,,,,,,,,,,
1618378640.487907,4.000000,0.000000,4115.384766,4152.307617,4056.923096,4041.025635,4099.487305,16216.000000,3.000000,55.000000,,,,0.000000,4.000000,4.000000,4.000000,4.000000,4.000000,100.000000,,,,,,,,2.000000,0.000000,0.227524,0.616455,0.229492,-0.718018,0.995132,0.053712,-0.144533,-11.684358,12.475409,57.856552
1618378640.495725,5.000000,0.000000,4115.384766,4135.897461,4053.333252,4029.230713,4095.384521,450.000000,3.000000,55.000000,,,,0.000000,4.000000,4.000000,4.000000,4.000000,4.000000,100.000000,,,,,,,,,,,,,,,,,,,
1618378640.503543,6.000000,0.000000,4120.512695,4137.436035,4057.435791,4036.923096,4103.589844,16196.000000,3.000000,55.000000,,,,0.000000,4.000000,4.000000,4.000000,4.000000,4.000000,100.000000,,,,,,,,3.000000,0.000000,0.227770,0.616455,0.229248,-0.718018,0.989761,0.039551,-0.143069,-11.772045,10.809160,58.530956
1618378640.511361,7.000000,0.000000,4125.641113,4150.769043,4066.153809,4060.000000,4112.307617,450.000000,3.000000,55.000000,,,,0.000000,4.000000,4.000000,4.000000,4.000000,4.000000,100.000000,,,,,,,,,,,,,,,,,,,
1618378640.519179,8.000000,0.000000,4128.717773,4152.307617,4065.128174,4057.948730,4109.743652,450.000000,3.000000,55.000000,,,,0.000000,4.000000,4.000000,4.000000,4.000000,4.000000,100.000000,,,,,,,,4.000000,0.000000,0.226999,0.616455,0.229248,-0.718262,0.997574,0.049317,-0.142580,-11.731332,9.309536,59.078106
1618378640.526997,9.000000,0.000000,4131.282227,4154.871582,4065.128174,4038.461426,4112.820313,16214.000000,3.000000,55.000000,,,,0.000000,4.000000,4.000000,4.000000,4.000000,4.000000,100.000000,,,,,,,,,,,,,,,,,,,
1618378640.534915,10.000000,0.000000,4134.871582,4162.051270,4069.230713,4045.641113,4124.102539,450.000000,3.000000,55.000000,,,,0.000000,4.000000,4.000000,4.000000,4.000000,4.000000,100.000000,,,,,,,,5.000000,0.000000,0.227245,0.616455,0.229004,-0.718262,1.014176,0.049805,-0.143557,-11.754506,11.728243,59.570538
1618378640.542733,11.000000,0.000000,4142.051270,4163.077148,4073.333252,4061.538574,4129.743652,16226.000000,3.000000,55.000000,,,,0.000000,4.000000,4.000000,4.000000,4.000000,4.000000,100.000000,,,,,,,,,,,,,,,,,,,
1618378640.550551,12.000000,0.000000,4155.384766,4163.589844,4081.538574,4060.512939,4140.000000,450.000000,3.000000,55.000000,,,,0.000000,4.000000,4.000000,4.000000,4.000000,4.000000,100.000000,,,,,,,,6.000000,0.000000,0.227245,0.616455,0.229004,-0.718262,0.994156,0.054200,-0.138186,-11.894994,13.905079,58.159451
1618378640.558369,13.000000,0.000000,4165.128418,4161.538574,4086.153809,4060.000000,4149.230957,450.000000,3.000000,55.000000,,,,0.000000,4.000000,4.000000,4.000000,4.000000,4.000000,100.000000,,,,,,,,,,,,,,,,,,,
1618378640.566187,14.000000,0.000000,4153.333496,4153.846191,4076.923096,4063.589844,4138.461426,450.000000,3.000000,55.000000,,,,0.000000,4.000000,4.000000,4.000000,4.000000,4.000000,100.000000,,,,,,,,7.000000,0.000000,0.228016,0.616455,0.229004,-0.718018,1.001968,0.064942,-0.139162,-11.901802,12.036049,58.743752
1618378640.574005,15.000000,0.000000,4133.333496,4148.717773,4065.641113,4043.589844,4120.000000,16226.000000,3.000000,55.000000,,,,0.000000,4.000000,4.000000,4.000000,4.000000,4.000000,100.000000,,,,,,,,,,,,,,,,,,,
1618378640.581823,16.000000,0.000000,4128.717773,4147.179688,4061.538574,4025.128174,4118.974121,0.000000,3.000000,55.000000,,,,0.000000,4.000000,4.000000,4.000000,4.000000,4.000000,100.000000,,,,,,,,8.000000,0.000000,0.227600,0.616699,0.228760,-0.718018,0.997086,0.062013,-0.136721,-11.907928,14.241920,59.329437
1618378640.589641,17.000000,0.000000,4135.384766,4149.743652,4060.512939,4043.589844,4123.077148,0.000000,3.000000,55.000000,,,,0.000000,4.000000,4.000000,4.000000,4.000000,4.000000,100.000000,,,,,,,,,,,,,,,,,,,
1618378640.597459,18.000000,0.000000,4132.820313,4146.666504,4060.000000,4048.718018,4118.974121,0.000000,3.000000,55.000000,,,,0.000000,4.000000,4.000000,4.000000,4.000000,4.000000,100.000000,,,,,,,,9.000000,0.000000,0.227600,0.616699,0.228760,-0.718018,0.993667,0.051270,-0.140139,-11.913444,12.279389,59.976181
1618378640.605277,19.000000,0.000000,4130.769043,4145.641113,4065.641113,4031.281982,4120.000000,0.000000,3.000000,55.000000,,,,0.000000,4.000000,4.000000,4.000000,4.000000,4.000000,100.000000,,,,,,,,,,,,,,,,,,,
1618378640.612995,20.000000,0.000000,4141.025879,4161.025879,4075.897461,4045.641113,4128.205078,0.000000,3.000000,55.000000,,,,0.000000,4.000000,4.000000,4.000000,4.000000,4.000000,100.000000,,,,,,,,10.000000,0.000000,0.227845,0.616699,0.228516,-0.718018,0.994156,0.042969,-0.134279,-12.097853,10.692558,60.378807
1618378640.620813,21.000000,0.000000,4149.743652,4178.461426,4087.179443,4070.769287,4134.358887,0.000000,3.000000,55.000000,,,,0.000000,4.000000,4.000000,4.000000,4.000000,4.000000,100.000000,,,,,,,,,,,,,,,,,,,
1618378640.628630,22.000000,0.000000,4149.743652,4186.153809,4100.000000,4069.230713,4140.512695,0.000000,3.000000,55.000000,,,,0.000000,4.000000,4.000000,4.000000,4.000000,4.000000,100.000000,,,,,,,,11.000000,0.000000,0.227845,0.616699,0.228516,-0.718018,0.985855,0.048829,-0.145998,-12.024559,9.144779,60.800987
1618378640.636448,23.000000,0.000000,4147.179688,4185.128418,4097.436035,4069.743652,4141.025879,0.000000,3.000000,55.000000,,,,0.000000,4.000000,4.000000,4.000000,4.000000,4.000000,100.000000,,,,,,,,,,,,,,,,,,,
1618378640.644266,24.000000,0.000000,4142.051270,4176.922852,4080.000000,4071.794922,4125.641113,0.000000,3.000000,55.000000,,,,0.000000,4.000000,4.000000,4.000000,4.000000,4.000000,100.000000,,,,,,,,12.000000,0.000000,0.227845,0.616699,0.228516,-0.718018,0.990738,0.052247,-0.140627,-11.958595,7.691963,61.180946
1618378640.652084,25.000000,0.000000,4134.871582,4167.692383,4072.307617,4058.974365,4114.358887,0.000000,3.000000,55.000000,,,,0.000000,4.000000,4.000000,4.000000,4.000000,4.000000,100.000000,,,,,,,,,,,,,,,,,,,
1618378640.659901,26.000000,0.000000,4140.512695,4169.743652,4082.564209,4061.538574,4122.563965,0.000000,3.000000,55.000000,,,,0.000000,4.000000,4.000000,4.000000,4.000000,4.000000,100.000000,,,,,,,,13.000000,0.000000,0.228090,0.616699,0.228271,-0.718018,1.002457,0.039063,-0.127932,-11.899227,10.212612,61.522911
1618378640.667719,27.000000,0.000000,4150.256348,4172.307617,4089.743652,4062.051270,4130.256348,0.000000,3.000000,55.000000,,,,0.000000,4.000000,4.000000,4.000000,4.000000,4.000000,100.000000,,,,,,,,,,,,,,,,,,,
1618378640.675537,28.000000,0.000000,4146.666504,4163.077148,4080.000000,4046.153809,4128.205078,0.000000,3.000000,55.000000,,,,0.000000,4.000000,4.000000,4.000000,4.000000,4.000000,100.000000,,,,,,,,14.000000,0.000000,0.228090,0.616699,0.228271,-0.718018,0.984390,0.044434,-0.139651,-11.845797,12.481195,59.916588
1618378640.683255,29.000000,0.000000,4145.641113,4158.461426,4072.820557,4058.461426,4130.256348,0.000000,3.000000,55.000000,,,,0.000000,4.000000,4.000000,4.000000,4.000000,4.000000,100.000000,,,,,,,,,,,,,,,,,,,
1618378640.691073,30.000000,0.000000,4158.974121,4170.769043,4081.025635,4083.076904,4147.179688,0.000000,3.000000,55.000000,,,,0.000000,4.000000,4.000000,4.000000,4.000000,4.000000,100.000000,,,,,,,,15.000000,0.000000,0.228334,0.616699,0.228027,-0.718018,0.983413,0.050294,-0.133791,-11.737894,14.642552,60.444805
1618378640.698890,31.000000,0.000000,4168.205078,4180.000000,4092.307617,4075.897461,4159.487305,0.000000,3.000000,55.000000,,,,0.000000,4.000000,4.000000,4.000000,4.000000,4.000000,100.000000,,,,,,,,,,,,,,,,,,,
1618378640.706708,32.000000,0.000000,4162.563965,4167.692383,4092.820557,4063.589844,4155.384766,0.000000,3.000000,55.000000,,,,0.000000,4.000000,4.000000,4.000000,4.000000,4.000000,100.000000,,,,,,,,16.000000,0.000000,0.228992,0.616455,0.228027,-0.718018,0.986831,0.069825,-0.134768,-11.760411,16.408327,59.065922
1618378640.714526,33.000000,0.000000,4157.436035,4157.436035,4086.666748,4071.794922,4148.717773,0.000000,3.000000,55.000000,,,,0.000000,4.000000,4.000000,4.000000,4.000000,4.000000,100.000000,,,,,,,,,,,,,,,,,,,
1618378640.722343,34.000000,0.000000,4161.025879,4165.641113,4086.153809,4075.384521,4148.205078,0.000000,3.000000,55.000000,,,,0.000000,4.000000,4.000000,4.000000,4.000000,4.000000,100.000000,,,,,,,,17.000000,0.000000,0.228577,0.616699,0.227783,-0.718018,0.993179,0.042481,-0.142580,-11.720862,14.408602,59.559574
1618378640.730161,35.000000,0.000000,4164.615234,4174.358887,4086.666748,4052.820557,4147.179688,0.000000,3.000000,55.000000,,,,0.000000,4.000000,4.000000,4.000000,4.000000,4.000000,100.000000,,,,,,,,,,,,,,,,,,,
1618378640.737979,36.000000,0.000000,4162.051270,4169.230957,4082.051270,4037.948730,4144.615234,0.000000,3.000000,55.000000,,,,0.000000,4.000000,4.000000,4.000000,4.000000,4.000000,100.000000,,,,,,,,18.000000,0.000000,0.228712,0.616455,0.227539,-0.718262,0.986831,0.058595,-0.145998,-11.804899,12.489219,59.944046
1618378640.745797,37.000000,0.000000,4160.512695,4162.051270,4084.615479,4059.487061,4148.717773,0.000000,3.000000,55.000000,,,,0.000000,4.000000,4.000000,4.000000,4.000000,4.000000,100.000000,,,,,,,,,,,,,,,,,,,
1618378640.753614,38.000000,0.000000,4166.666504,4164.102539,4089.743652,4077.435791,4153.846191,0.000000,3.000000,55.000000,,,,0.000000,4.000000,4.000000,4.000000,4.000000,4.000000,100.000000,,,,,,,,19.000000,0.000000,0.229063,0.616699,0.227295,-0.718018,1.007828,0.050294,-0.142092,-11.701085,10.642143,60.469517
1618378640.761332,39.000000,0.000000,4171.282227,4170.769043,4091.794922,4065.128174,4154.358887,0.000000,3.000000,55.000000,,,,0.000000,4.000000,4.000000,4.000000,4.000000,4.000000,100.000000,,,,,,,,,,,,,,,,,,,
1618378640.769150,40.000000,0.000000,4173.333496,4180.000000,4100.512695,4068.718018,4162.563965,0.000000,3.000000,55.000000,,,,0.000000,4.000000,4.000000,4.000000,4.000000,4.000000,100.000000,,,,,,,,20.000000,0.000000,0.229063,0.616699,0.227295,-0.718018,0.988296,0.047852,-0.141604,-11.667469,9.039591,61.002254
1618378640.776968,41.000000,0.000000,4176.410156,4182.563965,4104.102539,4077.948730,4173.333496,0.000000,3.000000,55.000000,,,,0.000000,4.000000,4.000000,4.000000,4.000000,4.000000,100.000000,,,,,,,,,,,,,,,,,,,
1618378640.784786,42.000000,0.000000,4175.897461,4181.025879,4095.897461,4059.487061,4172.820313,0.000000,3.000000,55.000000,,,,0.000000,4.000000,4.000000,4.000000,4.000000,4.000000,100.000000,,,,,,,,21.000000,0.000000,0.228712,0.616455,0.227539,-0.718262,0.986831,0.058595,-0.145998,-11.637214,7.597293,59.388184
1618378640.792603,43.000000,0.000000,4172.820313,4188.717773,4096.922852,4054.358887,4168.205078,0.000000,3.000000,55.000000,,,,0.000000,4.000000,4.000000,4.000000,4.000000,4.000000,100.000000,,,,,,,,,,,,,,,,,,,
1618378640.800421,44.000000,0.000000,4175.384766,4196.922852,4105.641113,4078.461426,4172.820313,0.000000,3.000000,55.000000,,,,0.000000,4.000000,4.000000,4.000000,4.000000,4.000000,100.000000,,,,,,,,22.000000,0.000000,0.229305,0.616699,0.227051,-0.718018,0.997086,0.048829,-0.141115,-11.789431,10.187224,59.909424
1618378640.808239,45.000000,0.000000,4180.000000,4197.436035,4112.307617,4095.384521,4181.538574,0.000000,3.000000,55.000000,,,,0.000000,4.000000,4.000000,4.000000,4.000000,4.000000,100.000000,,,,,,,,,,,,,,,,,,,
1618378640.816057,46.000000,0.000000,4176.922852,4187.692383,4109.230957,4088.718018,4177.948730,0.000000,3.000000,55.000000,,,,0.000000,4.000000,4.000000,4.000000,4.000000,4.000000,100.000000,,,,,,,,23.000000,0.000000,0.229305,0.616699,0.227051,-0.718018,0.989761,0.051759,-0.146975,-11.687164,8.510533,60.318726
1618378640.823974,47.000000,0.000000,4172.820313,4170.769043,4096.410156,4066.153809,4163.589844,0.000000,3.000000,55.000000,,,,0.000000,4.000000,4.000000,4.000000,4.000000,4.000000,100.000000,,,,,,,,,,,,,,,,,,,
1618378640.831792,48.000000,0.000000,4173.846191,4172.820313,4087.179443,4055.384521,4157.948730,0.000000,3.000000,55.000000,,,,0.000000,4.000000,4.000000,4.000000,4.000000,4.000000,100.000000,,,,,,,,24.000000,0.000000,0.229546,0.616699,0.226807,-0.718018,0.985367,0.041505,-0.144533,-11.654940,7.121141,60.866543
1618378640.839610,49.000000,0.000000,4172.307617,4191.794922,4094.358887,4065.641113,4161.025879,0.000000,3.000000,55.000000,,,,0.000000,4.000000,4.000000,4.000000,4.000000,4.000000,100.000000,,,,,,,,,,,,,,,,,,,
1618378640.847428,50.000000,0.000000,4168.717773,4194.871582,4105.128418,4063.076904,4155.384766,0.000000,3.000000,55.000000,,,,0.000000,4.000000,4.000000,4.000000,4.000000,4.000000,100.000000,,,,,,,,25.000000,0.000000,0.229546,0.616699,0.226807,-0.718018,0.993179,0.042969,-0.140627,-11.625937,5.870689,61.239948
1618378640.855246,51.000000,0.000000,4174.871582,4189.743652,4105.128418,4050.769287,4150.256348,0.000000,3.000000,55.000000,,,,0.000000,4.000000,4.000000,4.000000,4.000000,4.000000,100.000000,,,,,,,,,,,,,,,,,,,
1618378640.863064,52.000000,0.000000,4185.128418,4193.333496,4104.102539,4059.487061,4160.000000,0.000000,3.000000,55.000000,,,,0.000000,4.000000,4.000000,4.000000,4.000000,4.000000,100.000000,,,,,,,,26.000000,0.000000,0.229023,0.616699,0.226563,-0.718262,0.994644,0.047852,-0.148928,-11.659651,4.745282,59.602104
1618378640.870882,53.000000,0.000000,4189.743652,4192.307617,4108.205078,4077.948730,4172.820313,0.000000,3.000000,55.000000,,,,0.000000,4.000000,4.000000,4.000000,4.000000,4.000000,100.000000,,,,,,,,,,,,,,,,,,,
1618378640.878700,54.000000,0.000000,4193.333496,4194.358887,4111.794922,4084.615479,4178.974121,0.000000,3.000000,55.000000,,,,0.000000,4.000000,4.000000,4.000000,4.000000,4.000000,100.000000,,,,,,,,27.000000,0.000000,0.229023,0.616699,0.226563,-0.718262,0.994644,0.037598,-0.126955,-11.630178,3.852046,58.128048
1618378640.886518,55.000000,0.000000,4195.384766,4202.051270,4110.256348,4079.487061,4181.538574,0.000000,3.000000,55.000000,,,,0.000000,4.000000,4.000000,4.000000,4.000000,4.000000,100.000000,1.000000,100.000000,4.000000,4.000000,4.000000,4.000000,4.000000,,,,,,,,,,,,
1618378640.894436,56.000000,0.000000,4190.769043,4191.794922,4110.256348,4078.974365,4182.051270,0.000000,3.000000,55.000000,,,,0.000000,4.000000,4.000000,4.000000,4.000000,4.000000,100.000000,,,,,,,,28.000000,0.000000,0.230028,0.616699,0.226318,-0.718018,0.993667,0.055177,-0.138674,-11.484021,2.808872,58.775303
1618378640.902254,57.000000,0.000000,4181.538574,4185.128418,4114.871582,4079.487061,4173.333496,0.000000,3.000000,55.000000,,,,0.000000,4.000000,4.000000,4.000000,4.000000,4.000000,100.000000,,,,,,,,,,,,,,,,,,,
1618378640.910072,58.000000,0.000000,4177.948730,4202.051270,4117.948730,4081.538574,4171.794922,0.000000,3.000000,55.000000,,,,0.000000,4.000000,4.000000,4.000000,4.000000,4.000000,100.000000,,,,,,,,29.000000,0.000000,0.230028,0.616699,0.226318,-0.718018,0.987320,0.042481,-0.135256,-11.531927,5.877645,59.298016
1618378640.917890,59.000000,0.000000,4185.641113,4210.769043,4117.948730,4092.307617,4188.717773,0.000000,3.000000,55.000000,,,,0.000000,4.000000,4.000000,4.000000,4.000000,4.000000,100.000000,,,,,,,,,,,,,,,,,,,
1618378640.925708,60.000000,0.000000,4190.256348,4199.487305,4115.897461,4106.153809,4197.948730,0.000000,3.000000,55.000000,,,,0.000000,4.000000,4.000000,4.000000,4.000000,4.000000,100.000000,,,,,,,,30.000000,0.000000,0.230028,0.616699,0.226318,-0.718018,1.004898,0.039063,-0.144045,-11.515226,4.751543,59.708645
1618378640.933526,61.000000,0.000000,4186.666504,4196.410156,4115.897461,4102.051270,4192.307617,0.000000,3.000000,55.000000,,,,0.000000,4.000000,4.000000,4.000000,4.000000,4.000000,100.000000,,,,,,,,,,,,,,,,,,,
1618378640.941344,62.000000,0.000000,4186.153809,4204.615234,4121.025879,4082.564209,4198.461426,0.000000,3.000000,55.000000,,,,0.000000,4.000000,4.000000,4.000000,4.000000,4.000000,100.000000,,,,,,,,31.000000,0.000000,0.229372,0.616943,0.226318,-0.718018,0.987320,0.042969,-0.140139,-11.500196,7.566234,60.317471
1618378640.949162,63.000000,0.000000,4182.563965,4200.512695,4118.461426,4081.538574,4199.487305,0.000000,3.000000,55.000000,,,,0.000000,4.000000,4.000000,4.000000,4.000000,4.000000,100.000000,,,,,,,,,,,,,,,,,,,
1618378640.957080,64.000000,0.000000,4163.077148,4185.128418,4097.436035,4071.794922,4170.769043,450.000000,3.000000,55.000000,,,,0.000000,4.000000,4.000000,4.000000,4.000000,4.000000,100.000000,,,,,,,,32.000000,0.000000,0.229372,0.616943,0.226318,-0.718018,0.987808,0.044434,-0.133791,-11.426852,6.211457,60.805595
1618378640.964898,65.000000,0.000000,4147.179688,4181.538574,4086.153809,4055.897461,4148.717773,450.000000,3.000000,55.000000,,,,0.000000,4.000000,4.000000,4.000000,4.000000,4.000000,100.000000,,,,,,,,,,,,,,,,,,,
1618378640.972717,66.000000,0.000000,4161.025879,4189.743652,4106.153809,4080.000000,4165.128418,16226.000000,3.000000,55.000000,,,,0.000000,4.000000,4.000000,4.000000,4.000000,4.000000,100.000000,,,,,,,,33.000000,0.000000,0.229613,0.616943,0.226074,-0.718018,0.981949,0.041505,-0.138674,-11.420659,9.059602,61.125282
1618378640.980535,67.000000,0.000000,4186.666504,4201.025879,4126.153809,4109.743652,4192.307617,450.000000,3.000000,55.000000,,,,0.000000,4.000000,4.000000,4.000000,4.000000,4.000000,100.000000,,,,,,,,,,,,,,,,,,,
1618378640.988353,68.000000,0.000000,4191.282227,4211.282227,4124.615234,4095.384521,4192.820313,16216.000000,3.000000,55.000000,,,,0.000000,4.000000,4.000000,4.000000,4.000000,4.000000,100.000000,,,,,,,,34.000000,0.000000,0.230375,0.616943,0.226074,-0.717773,0.998062,0.038087,-0.140627,-11.534716,11.563118,59.558720
1618378640.996171,69.000000,0.000000,4178.974121,4214.871582,4116.922852,4083.076904,4180.000000,450.000000,3.000000,55.000000,,,,0.000000,4.000000,4.000000,4.000000,4.000000,4.000000,100.000000,,,,,,,,,,,,,,,,,,,
1618378641.003990,70.000000,0.000000,4174.871582,4210.769043,4114.871582,4086.666748,4174.358887,16198.000000,3.000000,55.000000,,,,0.000000,4.000000,4.000000,4.000000,4.000000,4.000000,100.000000,,,,,,,,35.000000,0.000000,0.230375,0.616943,0.226074,-0.717773,0.990738,0.038575,-0.135744,-11.577552,9.928283,57.969372
1618378641.011808,71.000000,0.000000,4175.897461,4205.641113,4108.717773,4056.410156,4165.641113,450.000000,3.000000,55.000000,,,,0.000000,4.000000,4.000000,4.000000,4.000000,4.000000,100.000000,,,,,,,,,,,,,,,,,,,
1618378641.019626,72.000000,0.000000,4167.179688,4201.538574,4096.410156,4045.128174,4155.897461,450.000000,3.000000,55.000000,,,,0.000000,4.000000,4.000000,4.000000,4.000000,4.000000,100.000000,,,,,,,,36.000000,0.000000,0.230375,0.616943,0.226074,-0.717773,1.000992,0.052735,-0.127443,-11.616104,8.516747,58.692310
1618378641.027444,73.000000,0.000000,4164.615234,4201.538574,4094.871826,4081.538574,4160.512695,16218.000000,3.000000,55.000000,,,,0.000000,4.000000,4.000000,4.000000,4.000000,4.000000,100.000000,,,,,,,,,,,,,,,,,,,
1618378641.035362,74.000000,0.000000,4174.871582,4211.794922,4105.641113,4096.410156,4166.153809,450.000000,3.000000,55.000000,,,,0.000000,4.000000,4.000000,4.000000,4.000000,4.000000,100.000000,,,,,,,,37.000000,0.000000,0.229372,0.616943,0.226318,-0.718018,0.977066,0.039551,-0.141604,-11.710616,7.306180,59.342953
1618378641.043180,75.000000,0.000000,4180.000000,4212.820313,4112.820313,4085.128174,4161.538574,16224.000000,3.000000,55.000000,,,,0.000000,4.000000,4.000000,4.000000,4.000000,4.000000,100.000000,,,,,,,,,,,,,,,,,,,
1618378641.050997,76.000000,0.000000,4177.436035,4206.666504,4110.256348,4086.666748,4168.717773,450.000000,3.000000,55.000000,,,,0.000000,4.000000,4.000000,4.000000,4.000000,4.000000,100.000000,,,,,,,,38.000000,0.000000,0.229372,0.616943,0.226318,-0.718018,1.007828,0.047852,-0.140627,-11.616231,10.044853,57.954624
1618378641.058815,77.000000,0.000000,4175.897461,4207.692383,4105.128418,4091.281982,4176.410156,450.000000,3.000000,55.000000,,,,0.000000,4.000000,4.000000,4.000000,4.000000,4.000000,100.000000,,,,,,,,,,,,,,,,,,,
1618378641.066633,78.000000,0.000000,4175.897461,4210.769043,4107.692383,4086.666748,4167.692383,450.000000,3.000000,55.000000,,,,0.000000,4.000000,4.000000,4.000000,4.000000,4.000000,100.000000,,,,,,,,39.000000,0.000000,0.229372,0.616943,0.226318,-0.718018,0.992203,0.048341,-0.143557,-11.770546,8.502029,58.738853
1618378641.074451,79.000000,0.000000,4174.358887,4205.128418,4108.717773,4078.974365,4167.179688,16224.000000,3.000000,55.000000,,,,0.000000,4.000000,4.000000,4.000000,4.000000,4.000000,100.000000,,,,,,,,,,,,,,,,,,,
1618378641.082268,80.000000,0.000000,4171.794922,4192.307617,4101.025879,4080.512939,4180.512695,450.000000,3.000000,55.000000,,,,0.000000,4.000000,4.000000,4.000000,4.000000,4.000000,100.000000,,,,,,,,40.000000,0.000000,0.229372,0.616943,0.226318,-0.718018,1.005386,0.054688,-0.142580,-11.849614,7.292935,59.384842
1618378641.090086,81.000000,0.000000,4170.256348,4185.128418,4094.358887,4093.333252,4181.025879,450.000000,3.000000,55.000000,,,,0.000000,4.000000,4.000000,4.000000,4.000000,4.000000,100.000000,,,,,,,,,,,,,,,,,,,
1618378641.098004,82.000000,0.000000,4172.820313,4186.666504,4098.974121,4086.666748,4172.307617,450.000000,3.000000,55.000000,,,,0.000000,4.000000,4.000000,4.000000,4.000000,4.000000,100.000000,,,,,,,,41.000000,0.000000,0.229613,0.616943,0.226074,-0.718018,1.000504,0.049317,-0.144045,-11.920775,6.204749,59.906418
1618378641.105822,83.000000,0.000000,4184.102539,4190.256348,4115.384766,4080.000000,4176.410156,16224.000000,3.000000,55.000000,,,,0.000000,4.000000,4.000000,4.000000,4.000000,4.000000,100.000000,,,,,,,,,,,,,,,,,,,
1618378641.113640,84.000000,0.000000,4191.282227,4198.461426,4123.589844,4103.077148,4185.128418,450.000000,3.000000,55.000000,,,,0.000000,4.000000,4.000000,4.000000,4.000000,4.000000,100.000000,,,,,,,,42.000000,0.000000,0.229853,0.616943,0.225830,-0.718018,1.008316,0.037110,-0.140627,-11.984820,8.754489,58.521561
1618378641.121458,85.000000,0.000000,4191.794922,4213.333496,4123.077148,4118.461426,4188.205078,450.000000,3.000000,55.000000,,,,0.000000,4.000000,4.000000,4.000000,4.000000,4.000000,100.000000,,,,,,,,,,,,,,,,,,,
1618378641.129276,86.000000,0.000000,4199.487305,4227.179688,4130.769043,4107.179688,4189.230957,450.000000,3.000000,55.000000,,,,0.000000,4.000000,4.000000,4.000000,4.000000,4.000000,100.000000,,,,,,,,43.000000,0.000000,0.229372,0.616943,0.226318,-0.718018,1.005386,0.054688,-0.142580,-12.102277,11.288515,57.155556
1618378641.137094,87.000000,0.000000,4207.179688,4228.717773,4134.358887,4104.615234,4190.769043,16224.000000,3.000000,55.000000,,,,0.000000,4.000000,4.000000,4.000000,4.000000,4.000000,100.000000,,,,,,,,,,,,,,,,,,,
1618378641.144912,88.000000,0.000000,4205.641113,4218.974121,4125.641113,4112.307617,4189.743652,450.000000,3.000000,55.000000,,,,0.000000,4.000000,4.000000,4.000000,4.000000,4.000000,100.000000,,,,,,,,44.000000,0.000000,0.229853,0.616943,0.225830,-0.718018,1.008316,0.037110,-0.140627,-12.148171,13.329879,56.045784
1618378641.152730,89.000000,0.000000,4203.077148,4208.205078,4118.974121,4113.846191,4186.153809,450.000000,3.000000,55.000000,,,,0.000000,4.000000,4.000000,4.000000,4.000000,4.000000,100.000000,,,,,,,,,,,,,,,,,,,
1618378641.160648,90.000000,0.000000,4202.051270,4205.641113,4116.410156,4112.820313,4181.025879,450.000000,3.000000,55.000000,,,,0.000000,4.000000,4.000000,4.000000,4.000000,4.000000,100.000000,,,,,,,,45.000000,0.000000,0.230200,0.617188,0.225586,-0.717773,0.984878,0.035645,-0.135256,-12.249292,11.637999,56.901264
1618378641.168466,91.000000,0.000000,4198.974121,4210.256348,4112.307617,4097.436035,4175.384766,16224.000000,3.000000,55.000000,,,,0.000000,4.000000,4.000000,4.000000,4.000000,4.000000,100.000000,,,,,,,,,,,,,,,,,,,
1618378641.176284,92.000000,0.000000,4195.384766,4203.589844,4106.666504,4085.128174,4164.615234,450.000000,3.000000,55.000000,,,,0.000000,4.000000,4.000000,4.000000,4.000000,4.000000,100.000000,,,,,,,,46.000000,0.000000,0.230200,0.617188,0.225586,-0.717773,0.987808,0.037110,-0.140139,-12.280486,13.764044,55.757107
1618378641.184103,93.000000,0.000000,4191.794922,4190.769043,4105.641113,4095.897461,4156.922852,450.000000,3.000000,55.000000,,,,0.000000,4.000000,4.000000,4.000000,4.000000,4.000000,100.000000,,,,,,,,,,,,,,,,,,,
1618378641.191921,94.000000,0.000000,4192.820313,4194.871582,4111.794922,4106.666504,4165.128418,450.000000,3.000000,55.000000,,,,0.000000,4.000000,4.000000,4.000000,4.000000,4.000000,100.000000,,,,,,,,47.000000,0.000000,0.230200,0.617188,0.225586,-0.717773,1.002945,0.050782,-0.139162,-12.248745,15.737300,54.667549
1618378641.199739,95.000000,0.000000,4204.615234,4209.743652,4122.051270,4108.717773,4181.538574,16224.000000,3.000000,55.000000,,,,0.000000,4.000000,4.000000,4.000000,4.000000,4.000000,100.000000,,,,,,,,,,,,,,,,,,,
1618378641.207557,96.000000,0.000000,4214.358887,4214.871582,4127.692383,4109.230957,4189.743652,450.000000,3.000000,55.000000,,,,0.000000,4.000000,4.000000,4.000000,4.000000,4.000000,100.000000,,,,,,,,48.000000,0.000000,0.230200,0.617188,0.225586,-0.717773,0.986831,0.043946,-0.131838,-12.279993,13.625232,55.541222
1618378641.215375,97.000000,0.000000,4212.307617,4207.692383,4126.666504,4106.153809,4189.230957,450.000000,3.000000,55.000000,,,,0.000000,4.000000,4.000000,4.000000,4.000000,4.000000,100.000000,,,,,,,,,,,,,,,,,,,
1618378641.223194,98.000000,0.000000,4209.230957,4205.641113,4123.589844,4103.589844,4187.179688,450.000000,3.000000,55.000000,,,,0.000000,4.000000,4.000000,4.000000,4.000000,4.000000,100.000000,,,,,,,,49.000000,0.000000,0.229960,0.617188,0.225830,-0.717773,0.987320,0.029786,-0.133303,-12.248301,11.784185,56.566792
1618378641.231012,99.000000,0.000000,4215.897461,4216.410156,4132.307617,4108.717773,4191.794922,16224.000000,3.000000,55.000000,,,,0.000000,4.000000,4.000000,4.000000,4.000000,4.000000,100.000000,,,,,,,,,,,,,,,,,,,
1618378641.238930,100.000000,0.000000,4224.615234,4222.563965,4144.615234,4117.436035,4204.102539,450.000000,3.000000,55.000000,,,,0.000000,4.000000,4.000000,4.000000,4.000000,4.000000,100.000000,,,,,,,,50.000000,0.000000,0.229960,0.617188,0.225830,-0.717773,0.994156,0.043946,-0.130861,-12.159963,10.246875,57.609432
1618378641.246748,101.000000,0.000000,4226.153809,4218.461426,4145.641113,4117.948730,4212.820313,450.000000,3.000000,55.000000,,,,0.000000,4.000000,4.000000,4.000000,4.000000,4.000000,100.000000,,,,,,,,,,,,,,,,,,,
1618378641.254566,102.000000,0.000000,4226.666504,4222.051270,4143.589844,4106.666504,4213.333496,450.000000,3.000000,55.000000,,,,0.000000,4.000000,4.000000,4.000000,4.000000,4.000000,100.000000,,,,,,,,51.000000,0.000000,0.230375,0.616943,0.226074,-0.717773,0.996597,0.044923,-0.122560,-12.020643,12.691479,58.308548
1618378641.262384,103.000000,0.000000,4224.102539,4225.128418,4143.589844,4110.256348,4207.692383,16224.000000,3.000000,55.000000,,,,0.000000,4.000000,4.000000,4.000000,4.000000,4.000000,100.000000,,,,,,,,,,,,,,,,,,,
1618378641.270202,104.000000,0.000000,4223.077148,4218.974121,4142.051270,4139.487305,4205.641113,450.000000,3.000000,55.000000,,,,0.000000,4.000000,4.000000,4.000000,4.000000,4.000000,100.000000,,,,,,,,52.000000,0.000000,0.230375,0.616943,0.226074,-0.717773,0.994156,0.057618,-0.144533,-12.014886,14.712175,56.904030
1618378641.278020,105.000000,0.000000,4232.307617,4222.563965,4141.538574,4148.717773,4212.820313,450.000000,3.000000,55.000000,,,,0.000000,4.000000,4.000000,4.000000,4.000000,4.000000,100.000000,,,,,,,,,,,,,,,,,,,
1618378641.285838,106.000000,0.000000,4236.922852,4229.743652,4143.589844,4134.358887,4219.487305,450.000000,3.000000,55.000000,,,,0.000000,4.000000,4.000000,4.000000,4.000000,4.000000,100.000000,,,,,,,,53.000000,0.000000,0.229613,0.616943,0.226074,-0.718018,1.000992,0.034668,-0.135256,-11.890074,16.530804,55.759594
1618378641.293656,107.000000,0.000000,4233.846191,4225.641113,4142.563965,4132.820313,4223.077148,16224.000000,3.000000,55.000000,,,,0.000000,4.000000,4.000000,4.000000,4.000000,4.000000,100.000000,,,,,,,,,,,,,,,,,,,
1618378641.301474,108.000000,0.000000,4233.846191,4222.051270,4137.436035,4133.846191,4225.128418,450.000000,3.000000,55.000000,,,,0.000000,4.000000,4.000000,4.000000,4.000000,4.000000,100.000000,,,,,,,,54.000000,0.000000,0.230268,0.616699,0.226074,-0.718018,0.998062,0.035645,-0.140627,-11.837559,14.339385,56.524063
1618378641.309392,109.000000,0.000000,4232.307617,4226.666504,4133.846191,4132.820313,4221.025879,450.000000,3.000000,55.000000,,,,0.000000,4.000000,4.000000,4.000000,4.000000,4.000000,100.000000,,,,,,,,,,,,,,,,,,,
1618378641.317210,110.000000,0.000000,4225.641113,4230.769043,4132.307617,4134.871582,4213.333496,450.000000,3.000000,55.000000,,,,0.000000,4.000000,4.000000,4.000000,4.000000,4.000000,100.000000,,,,,,,,55.000000,0.000000,0.230268,0.616699,0.226074,-0.718018,0.999527,0.048829,-0.140139,-11.790295,12.486738,57.271904
1618378641.325028,111.000000,0.000000,4220.512695,4228.205078,4132.820313,4130.769043,4211.282227,16224.000000,3.000000,55.000000,,,,0.000000,4.000000,4.000000,4.000000,4.000000,4.000000,100.000000,,,,,,,,,,,,,,,,,,,
1618378641.332845,112.000000,0.000000,4220.512695,4223.589844,4130.769043,4129.230957,4210.256348,450.000000,3.000000,55.000000,,,,0.000000,4.000000,4.000000,4.000000,4.000000,4.000000,100.000000,,,,,,,,56.000000,0.000000,0.230268,0.616699,0.226074,-0.718018,1.007340,0.035157,-0.148440,-11.987019,10.819357,58.124401
1618378641.340663,113.000000,0.000000,4219.487305,4220.512695,4132.820313,4128.717773,4207.179688,450.000000,3.000000,55.000000,,,,0.000000,4.000000,4.000000,4.000000,4.000000,4.000000,100.000000,,,,,,,,,,,,,,,,,,,
1618378641.348481,114.000000,0.000000,4218.461426,4221.025879,4140.000000,4128.205078,4206.153809,450.000000,3.000000,55.000000,,,,0.000000,4.000000,4.000000,4.000000,4.000000,4.000000,100.000000,,,,,,,,57.000000,0.000000,0.230028,0.616699,0.226318,-0.718018,0.989273,0.051759,-0.143069,-12.104255,9.318714,58.772022
1618378641.356299,115.000000,0.000000,4209.743652,4217.948730,4130.769043,4128.717773,4199.487305,16224.000000,3.000000,55.000000,,,,0.000000,4.000000,4.000000,4.000000,4.000000,4.000000,100.000000,,,,,,,,,,,,,,,,,,,
1618378641.364117,116.000000,0.000000,4193.333496,4202.563965,4110.769043,4116.410156,4182.051270,450.000000,3.000000,55.000000,,,,0.000000,4.000000,4.000000,4.000000,4.000000,4.000000,100.000000,,,,,,,,58.000000,0.000000,0.230028,0.616699,0.226318,-0.718018,0.996597,0.045899,-0.134279,-12.209767,8.027950,59.414696
1618378641.371935,117.000000,0.000000,4186.666504,4190.769043,4107.692383,4104.102539,4169.230957,450.000000,3.000000,55.000000,,,,0.000000,4.000000,4.000000,4.000000,4.000000,4.000000,100.000000,,,,,,,,,,,,,,,,,,,
1618378641.379853,118.000000,0.000000,4191.282227,4195.384766,4120.512695,4114.871582,4176.410156,450.000000,3.000000,55.000000,,,,0.000000,4.000000,4.000000,4.000000,4.000000,4.000000,100.000000,,,,,,,,59.000000,0.000000,0.230028,0.616699,0.226318,-0.718018,0.993179,0.052247,-0.133303,-12.244913,6.806448,59.993099
1618378641.387671,119.000000,0.000000,4192.820313,4198.461426,4126.666504,4122.563965,4189.743652,16224.000000,3.000000,55.000000,,,,0.000000,4.000000,4.000000,4.000000,4.000000,4.000000,100.000000,1.000000,100.000000,4.000000,4.000000,4.000000,4.000000,4.000000,,,,,,,,,,,,
1618378641.395489,120.000000,0.000000,4200.512695,4199.487305,4126.666504,4110.256348,4197.436035,450.000000,3.000000,55.000000,,,,0.000000,4.000000,4.000000,4.000000,4.000000,4.000000,100.000000,,,,,,,,60.000000,0.000000,0.230028,0.616699,0.226318,-0.718018,0.997574,0.046387,-0.143557,-12.156914,9.535279,58.420128
1618378641.403307,121.000000,0.000000,4209.743652,4196.410156,4126.666504,4112.307617,4197.436035,450.000000,3.000000,55.000000,,,,0.000000,4.000000,4.000000,4.000000,4.000000,4.000000,100.000000,,,,,,,,,,,,,,,,,,,
1618378641.411125,122.000000,0.000000,4201.538574,4179.487305,4119.487305,4121.025879,4189.230957,450.000000,3.000000,55.000000,,,,0.000000,4.000000,4.000000,4.000000,4.000000,4.000000,100.000000,,,,,,,,61.000000,0.000000,0.230028,0.616699,0.226318,-0.718018,0.984878,0.050294,-0.142092,-12.197345,8.103228,59.097988
1618378641.418943,123.000000,0.000000,4190.256348,4176.410156,4114.358887,4114.871582,4185.128418,16224.000000,3.000000,55.000000,,,,0.000000,4.000000,4.000000,4.000000,4.000000,4.000000,100.000000,,,,,,,,,,,,,,,,,,,
1618378641.426761,124.000000,0.000000,4191.794922,4194.871582,4118.461426,4108.205078,4189.230957,450.000000,3.000000,55.000000,,,,0.000000,4.000000,4.000000,4.000000,4.000000,4.000000,100.000000,,,,,,,,62.000000,0.000000,0.230789,0.616699,0.226318,-0.717773,1.003922,0.048829,-0.131838,-12.087037,9.602235,58.223412
1618378641.434680,125.000000,0.000000,4190.769043,4200.512695,4117.948730,4109.743652,4191.282227,450.000000,3.000000,55.000000,,,,0.000000,4.000000,4.000000,4.000000,4.000000,4.000000,100.000000,,,,,,,,,,,,,,,,,,,
1618378641.442498,126.000000,0.000000,4183.589844,4189.743652,4115.384766,4113.333496,4185.128418,450.000000,3.000000,55.000000,,,,0.000000,4.000000,4.000000,4.000000,4.000000,4.000000,100.000000,,,,,,,,63.000000,0.000000,0.230549,0.616699,0.226563,-0.717773,1.005875,0.045411,-0.135256,-12.074640,8.163488,56.887222
1618378641.450316,127.000000,0.000000,4178.974121,4182.051270,4111.794922,4117.948730,4178.974121,234.000000,3.000000,55.000000,,,,0.000000,4.000000,4.000000,4.000000,4.000000,4.000000,100.000000,,,,,,,,,,,,,,,,,,,
1618378641.458135,0.000000,0.000000,4171.794922,4172.307617,4100.000000,4123.077148,4174.871582,450.000000,3.000000,55.000000,,,,0.000000,4.000000,4.000000,4.000000,4.000000,4.000000,100.000000,,,,,,,,0.000000,0.000000,0.230549,0.616699,0.226563,-0.717773,0.999039,0.041505,-0.138674,-11.884037,6.928432,55.684654
1618378641.465953,1.000000,0.000000,4162.563965,4165.128418,4093.333252,4112.820313,4168.717773,450.000000,3.000000,55.000000,,,,0.000000,4.000000,4.000000,4.000000,4.000000,4.000000,100.000000,,,,,,,,,,,,,,,,,,,
1618378641.473772,2.000000,0.000000,4153.333496,4162.563965,4090.256348,4096.410156,4155.897461,16226.000000,3.000000,55.000000,,,,0.000000,4.000000,4.000000,4.000000,4.000000,4.000000,100.000000,,,,,,,,1.000000,0.000000,0.230549,0.616699,0.226563,-0.717773,0.999527,0.034668,-0.142092,-11.832126,5.757066,56.576248
1618378641.481590,3.000000,0.000000,4138.974121,4143.077148,4080.512939,4089.743652,4134.358887,450.000000,3.000000,55.000000,,,,0.000000,4.000000,4.000000,4.000000,4.000000,4.000000,100.000000,,,,,,,,,,,,,,,,,,,
1618378641.489409,4.000000,0.000000,4124.102539,4125.641113,4071.794922,4074.871826,4118.974121,16212.000000,3.000000,55.000000,,,,0.000000,4.000000,4.000000,4.000000,4.000000,4.000000,100.000000,,,,,,,,2.000000,0.000000,0.229895,0.616943,0.226563,-0.717773,0.980972,0.047364,-0.144533,-11.605959,4.702837,57.139420
1618378641.497227,5.000000,0.000000,4122.051270,4132.820313,4065.128174,4058.461426,4118.461426,450.000000,3.000000,55.000000,,,,0.000000,4.000000,4.000000,4.000000,4.000000,4.000000,100.000000,,,,,,,,,,,,,,,,,,,
1618378641.505046,6.000000,0.000000,4127.692383,4140.000000,4062.564209,4060.512939,4116.410156,16201.000000,3.000000,55.000000,,,,0.000000,4.000000,4.000000,4.000000,4.000000,4.000000,100.000000,,,,,,,,3.000000,0.000000,0.230549,0.616699,0.226563,-0.717773,0.999039,0.041505,-0.138674,-11.641670,3.754030,57.706093
1618378641.512964,7.000000,0.000000,4129.230957,4138.974121,4067.692383,4082.564209,4112.820313,450.000000,3.000000,55.000000,,,,0.000000,4.000000,4.000000,4.000000,4.000000,4.000000,100.000000,,,,,,,,,,,,,,,,,,,
1618378641.520782,8.000000,0.000000,4131.794922,4140.000000,4069.743652,4091.281982,4120.000000,450.000000,3.000000,55.000000,,,,0.000000,4.000000,4.000000,4.000000,4.000000,4.000000,100.000000,,,,,,,,4.000000,0.000000,0.230656,0.616943,0.226563,-0.717529,0.993179,0.042481,-0.144533,-11.673811,6.548841,58.275909
1618378641.528600,9.000000,0.000000,4135.897461,4140.512695,4064.615479,4076.410156,4124.102539,16224.000000,3.000000,55.000000,,,,0.000000,4.000000,4.000000,4.000000,4.000000,4.000000,100.000000,,,,,,,,,,,,,,,,,,,
1618378641.536418,10.000000,0.000000,4138.461426,4135.897461,4067.179443,4069.743652,4122.563965,450.000000,3.000000,55.000000,,,,0.000000,4.000000,4.000000,4.000000,4.000000,4.000000,100.000000,,,,,,,,5.000000,0.000000,0.230416,0.616943,0.226807,-0.717529,0.996109,0.040040,-0.140627,-11.762552,5.355619,58.908379
1618378641.544237,11.000000,0.000000,4136.410156,4133.333496,4071.794922,4070.769287,4123.077148,16221.000000,3.000000,55.000000,,,,0.000000,4.000000,4.000000,4.000000,4.000000,4.000000,100.000000,,,,,,,,,,,,,,,,,,,
1618378641.552055,12.000000,0.000000,4132.820313,4138.974121,4065.641113,4061.025635,4120.512695,450.000000,3.000000,55.000000,,,,0.000000,4.000000,4.000000,4.000000,4.000000,4.000000,100.000000,,,,,,,,6.000000,0.000000,0.230656,0.616943,0.226563,-0.717529,0.985367,0.033204,-0.141604,-11.782604,8.169718,57.503693
1618378641.559873,13.000000,0.000000,4129.230957,4144.102539,4063.076904,4052.820557,4116.922852,450.000000,3.000000,55.000000,,,,0.000000,4.000000,4.000000,4.000000,4.000000,4.000000,100.000000,,,,,,,,,,,,,,,,,,,
1618378641.567691,14.000000,0.000000,4131.282227,4142.051270,4071.281982,4060.000000,4124.102539,450.000000,3.000000,55.000000,,,,0.000000,4.000000,4.000000,4.000000,4.000000,4.000000,100.000000,,,,,,,,7.000000,0.000000,0.230656,0.616943,0.226563,-0.717529,0.986831,0.034180,-0.133303,-11.621205,10.762221,58.213383
1618378641.575510,15.000000,0.000000,4140.000000,4143.589844,4074.358887,4070.256348,4133.333496,16221.000000,3.000000,55.000000,,,,0.000000,4.000000,4.000000,4.000000,4.000000,4.000000,100.000000,,,,,,,,,,,,,,,,,,,
1618378641.583428,16.000000,0.000000,4141.025879,4137.948730,4070.256348,4073.846191,4130.769043,0.000000,3.000000,55.000000,,,,0.000000,4.000000,4.000000,4.000000,4.000000,4.000000,100.000000,,,,,,,,8.000000,0.000000,0.230656,0.616943,0.226563,-0.717529,0.995132,0.036622,-0.137697,-11.715207,9.147661,56.938015
1618378641.591246,17.000000,0.000000,4136.922852,4126.666504,4072.820557,4076.923096,4128.205078,0.000000,3.000000,55.000000,,,,0.000000,4.000000,4.000000,4.000000,4.000000,4.000000,100.000000,,,,,,,,,,,,,,,,,,,
1618378641.599065,18.000000,0.000000,4142.563965,4136.410156,4075.897461,4079.487061,4134.358887,0.000000,3.000000,55.000000,,,,0.000000,4.000000,4.000000,4.000000,4.000000,4.000000,100.000000,,,,,,,,9.000000,0.000000,0.230656,0.616943,0.226563,-0.717529,0.992203,0.046876,-0.135744,-11.620363,7.754372,55.849995
1618378641.606883,19.000000,0.000000,4147.179688,4150.256348,4070.769287,4083.589844,4136.922852,0.000000,3.000000,55.000000,,,,0.000000,4.000000,4.000000,4.000000,4.000000,4.000000,100.000000,,,,,,,,,,,,,,,,,,,
1618378641.614702,20.000000,0.000000,4138.974121,4140.000000,4064.102539,4080.000000,4127.179688,0.000000,3.000000,55.000000,,,,0.000000,4.000000,4.000000,4.000000,4.000000,4.000000,100.000000,,,,,,,,10.000000,0.000000,0.230656,0.616943,0.226563,-0.717529,0.994156,0.036133,-0.142092,-11.594819,6.500412,56.725056
1618378641.622520,21.000000,0.000000,4136.922852,4140.512695,4068.718018,4068.718018,4123.589844,0.000000,3.000000,55.000000,,,,0.000000,4.000000,4.000000,4.000000,4.000000,4.000000,100.000000,,,,,,,,,,,,,,,,,,,
1618378641.630339,22.000000,0.000000,4148.205078,4162.051270,4078.974365,4075.384521,4134.358887,0.000000,3.000000,55.000000,,,,0.000000,4.000000,4.000000,4.000000,4.000000,4.000000,100.000000,,,,,,,,11.000000,0.000000,0.231308,0.616699,0.226563,-0.717529,0.998550,0.042969,-0.133791,-11.631644,9.319662,57.512608
1618378641.638157,23.000000,0.000000,4155.897461,4164.615234,4080.000000,4084.102539,4138.974121,0.000000,3.000000,55.000000,,,,0.000000,4.000000,4.000000,4.000000,4.000000,4.000000,100.000000,,,,,,,,,,,,,,,,,,,
1618378641.645976,24.000000,0.000000,4155.897461,4156.410156,4084.102539,4083.076904,4138.974121,0.000000,3.000000,55.000000,,,,0.000000,4.000000,4.000000,4.000000,4.000000,4.000000,100.000000,,,,,,,,12.000000,0.000000,0.230656,0.616943,0.226563,-0.717529,0.994156,0.053712,-0.142092,-11.724603,8.028804,58.341038
1618378641.653894,25.000000,0.000000,4156.410156,4157.436035,4095.384521,4086.666748,4143.077148,0.000000,3.000000,55.000000,,,,0.000000,4.000000,4.000000,4.000000,4.000000,4.000000,100.000000,,,,,,,,,,,,,,,,,,,
1618378641.661712,26.000000,0.000000,4153.846191,4154.871582,4092.820557,4083.589844,4143.589844,0.000000,3.000000,55.000000,,,,0.000000,4.000000,4.000000,4.000000,4.000000,4.000000,100.000000,,,,,,,,13.000000,0.000000,0.230895,0.616943,0.226318,-0.717529,0.981460,0.042969,-0.134768,-11.748449,10.635399,57.052902
1618378641.669531,27.000000,0.000000,4149.230957,4155.897461,4081.538574,4081.025635,4142.563965,0.000000,3.000000,55.000000,,,,0.000000,4.000000,4.000000,4.000000,4.000000,4.000000,100.000000,,,,,,,,,,,,,,,,,,,
1618378641.677349,28.000000,0.000000,4147.179688,4158.461426,4082.564209,4096.410156,4146.666504,0.000000,3.000000,55.000000,,,,0.000000,4.000000,4.000000,4.000000,4.000000,4.000000,100.000000,,,,,,,,14.000000,0.000000,0.230895,0.616943,0.226318,-0.717529,0.997086,0.049805,-0.140139,-11.710096,9.093336,57.927303
1618378641.685168,29.000000,0.000000,4146.666504,4157.436035,4091.281982,4101.538574,4149.230957,0.000000,3.000000,55.000000,,,,0.000000,4.000000,4.000000,4.000000,4.000000,4.000000,100.000000,,,,,,,,,,,,,,,,,,,
1618378641.692986,30.000000,0.000000,4146.153809,4161.538574,4091.794922,4093.333252,4146.153809,0.000000,3.000000,55.000000,,,,0.000000,4.000000,4.000000,4.000000,4.000000,4.000000,100.000000,,,,,,,,15.000000,0.000000,0.230895,0.616943,0.226318,-0.717529,0.995132,0.040040,-0.143069,-11.735394,11.533663,58.594631
1618378641.700805,31.000000,0.000000,4144.615234,4164.615234,4088.205078,4103.077148,4141.538574,0.000000,3.000000,55.000000,,,,0.000000,4.000000,4.000000,4.000000,4.000000,4.000000,100.000000,,,,,,,,,,,,,,,,,,,
1618378641.708623,32.000000,0.000000,4136.922852,4156.922852,4085.641113,4097.948730,4133.846191,0.000000,3.000000,55.000000,,,,0.000000,4.000000,4.000000,4.000000,4.000000,4.000000,100.000000,,,,,,,,16.000000,0.000000,0.231028,0.616699,0.226074,-0.717773,0.994644,0.040040,-0.147463,-11.758162,13.729958,57.400768
1618378641.716442,33.000000,0.000000,4132.820313,4155.384766,4083.076904,4070.256348,4133.846191,0.000000,3.000000,55.000000,,,,0.000000,4.000000,4.000000,4.000000,4.000000,4.000000,100.000000,,,,,,,,,,,,,,,,,,,
1618378641.724360,34.000000,0.000000,4139.487305,4156.410156,4081.538574,4076.410156,4138.461426,0.000000,3.000000,55.000000,,,,0.000000,4.000000,4.000000,4.000000,4.000000,4.000000,100.000000,,,,,,,,17.000000,0.000000,0.231028,0.616699,0.226074,-0.717773,0.997086,0.052247,-0.139651,-11.778653,11.938254,56.266472
1618378641.732178,35.000000,0.000000,4140.512695,4149.230957,4078.974365,4090.256348,4132.307617,0.000000,3.000000,55.000000,,,,0.000000,4.000000,4.000000,4.000000,4.000000,4.000000,100.000000,,,,,,,,,,,,,,,,,,,
1618378641.739997,36.000000,0.000000,4131.794922,4147.179688,4074.871826,4070.769287,4125.641113,0.000000,3.000000,55.000000,,,,0.000000,4.000000,4.000000,4.000000,4.000000,4.000000,100.000000,,,,,,,,18.000000,0.000000,0.231028,0.616699,0.226074,-0.717773,1.006851,0.044434,-0.141115,-11.737280,10.325721,57.040070
1618378641.747815,37.000000,0.000000,4144.102539,4154.871582,4082.564209,4060.000000,4142.563965,0.000000,3.000000,55.000000,,,,0.000000,4.000000,4.000000,4.000000,4.000000,4.000000,100.000000,,,,,,,,,,,,,,,,,,,
1618378641.755634,38.000000,0.000000,4164.615234,4154.871582,4093.846191,4077.435791,4162.051270,0.000000,3.000000,55.000000,,,,0.000000,4.000000,4.000000,4.000000,4.000000,4.000000,100.000000,,,,,,,,19.000000,0.000000,0.231028,0.616699,0.226074,-0.717773,0.990738,0.041505,-0.146975,-11.759859,8.754810,57.736309
1618378641.763452,39.000000,0.000000,4166.666504,4157.436035,4094.871826,4093.846191,4165.128418,0.000000,3.000000,55.000000,,,,0.000000,4.000000,4.000000,4.000000,4.000000,4.000000,100.000000,,,,,,,,,,,,,,,,,,,
1618378641.771271,40.000000,0.000000,4168.717773,4167.692383,4095.384521,4094.871826,4168.717773,0.000000,3.000000,55.000000,,,,0.000000,4.000000,4.000000,4.000000,4.000000,4.000000,100.000000,,,,,,,,20.000000,0.000000,0.231028,0.616699,0.226074,-0.717773,1.004410,0.037110,-0.144045,-11.720366,11.348620,56.508644
1618378641.779089,41.000000,0.000000,4177.948730,4174.871582,4097.948730,4090.256348,4173.333496,0.000000,3.000000,55.000000,,,,0.000000,4.000000,4.000000,4.000000,4.000000,4.000000,100.000000,,,,,,,,,,,,,,,,,,,
1618378641.786908,42.000000,0.000000,4179.487305,4179.487305,4101.538574,4097.436035,4171.794922,0.000000,3.000000,55.000000,,,,0.000000,4.000000,4.000000,4.000000,4.000000,4.000000,100.000000,,,,,,,,21.000000,0.000000,0.231028,0.616699,0.226074,-0.717773,0.999039,0.043946,-0.132326,-11.744636,9.795052,57.198208
1618378641.794826,43.000000,0.000000,4176.922852,4183.589844,4107.692383,4113.846191,4177.436035,0.000000,3.000000,55.000000,,,,0.000000,4.000000,4.000000,4.000000,4.000000,4.000000,100.000000,,,,,,,,,,,,,,,,,,,
1618378641.802645,44.000000,0.000000,4177.436035,4185.128418,4114.358887,4110.769043,4185.641113,0.000000,3.000000,55.000000,,,,0.000000,4.000000,4.000000,4.000000,4.000000,4.000000,100.000000,,,,,,,,22.000000,0.000000,0.231028,0.616699,0.226074,-0.717773,0.989761,0.036622,-0.143069,-11.766479,12.225022,56.084171
1618378641.810463,45.000000,0.000000,4185.641113,4188.717773,4117.436035,4100.512695,4186.666504,0.000000,3.000000,55.000000,,,,0.000000,4.000000,4.000000,4.000000,4.000000,4.000000,100.000000,,,,,,,,,,,,,,,,,,,
1618378641.818281,46.000000,0.000000,4193.333496,4187.692383,4113.333496,4099.487305,4188.717773,0.000000,3.000000,55.000000,,,,0.000000,4.000000,4.000000,4.000000,4.000000,4.000000,100.000000,,,,,,,,23.000000,0.000000,0.231785,0.616699,0.226074,-0.717529,0.994156,0.037598,-0.142580,-11.726324,10.523996,56.756367
1618378641.826100,47.000000,0.000000,4188.717773,4181.538574,4111.794922,4094.871826,4191.794922,0.000000,3.000000,55.000000,,,,0.000000,4.000000,4.000000,4.000000,4.000000,4.000000,100.000000,,,,,,,,,,,,,,,,,,,
1618378641.833918,48.000000,0.000000,4188.205078,4186.153809,4113.333496,4108.717773,4194.358887,0.000000,3.000000,55.000000,,,,0.000000,4.000000,4.000000,4.000000,4.000000,4.000000,100.000000,,,,,,,,24.000000,0.000000,0.231134,0.616943,0.226074,-0.717529,1.002945,0.049805,-0.139651,-11.749999,8.993074,57.540791
1618378641.841737,49.000000,0.000000,4194.358887,4198.974121,4111.794922,4121.025879,4198.461426,0.000000,3.000000,55.000000,,,,0.000000,4.000000,4.000000,4.000000,4.000000,4.000000,100.000000,,,,,,,,,,,,,,,,,,,
1618378641.849555,50.000000,0.000000,4184.615234,4188.717773,4104.615234,4090.256348,4191.282227,0.000000,3.000000,55.000000,,,,0.000000,4.000000,4.000000,4.000000,4.000000,4.000000,100.000000,,,,,,,,25.000000,0.000000,0.231028,0.616699,0.226074,-0.717773,0.989761,0.036622,-0.143069,-11.771306,11.383612,56.452309
1618378641.857374,51.000000,0.000000,4167.692383,4166.666504,4091.281982,4072.820557,4173.333496,0.000000,3.000000,55.000000,,,,0.000000,4.000000,4.000000,4.000000,4.000000,4.000000,100.000000,,,,,,,,,,,,,,,,,,,
1618378641.865292,52.000000,0.000000,4166.666504,4168.205078,4089.230713,4096.410156,4165.128418,0.000000,3.000000,55.000000,,,,0.000000,4.000000,4.000000,4.000000,4.000000,4.000000,100.000000,,,,,,,,26.000000,0.000000,0.231134,0.616943,0.226074,-0.717529,1.002945,0.049805,-0.139651,-11.790483,9.766727,57.267139
1618378641.873111,53.000000,0.000000,4175.897461,4178.974121,4100.000000,4102.051270,4170.769043,0.000000,3.000000,55.000000,,,,0.000000,4.000000,4.000000,4.000000,4.000000,4.000000,100.000000,,,,,,,,,,,,,,,,,,,
1618378641.880929,54.000000,0.000000,4188.205078,4181.538574,4111.282227,4097.436035,4184.615234,0.000000,3.000000,55.000000,,,,0.000000,4.000000,4.000000,4.000000,4.000000,4.000000,100.000000,,,,,,,,27.000000,0.000000,0.230895,0.616943,0.226318,-0.717529,0.989761,0.035645,-0.137697,-11.867558,8.251717,58.000484
1618378641.888748,55.000000,0.000000,4198.974121,4192.820313,4121.538574,4123.077148,4194.871582,0.000000,3.000000,55.000000,,,,0.000000,4.000000,4.000000,4.000000,4.000000,4.000000,100.000000,1.000000,100.000000,4.000000,4.000000,4.000000,4.000000,4.000000,,,,,,,,,,,,
1618378641.896566,56.000000,0.000000,4193.846191,4202.051270,4120.000000,4130.769043,4190.769043,0.000000,3.000000,55.000000,,,,0.000000,4.000000,4.000000,4.000000,4.000000,4.000000,100.000000,,,,,,,,28.000000,0.000000,0.231653,0.616943,0.226318,-0.717285,1.000015,0.032227,-0.145510,-11.877109,6.888207,58.660496
1618378641.904384,57.000000,0.000000,4186.153809,4191.794922,4110.256348,4102.563965,4183.077148,0.000000,3.000000,55.000000,,,,0.000000,4.000000,4.000000,4.000000,4.000000,4.000000,100.000000,,,,,,,,,,,,,,,,,,,
1618378641.912203,58.000000,0.000000,4197.948730,4184.615234,4117.948730,4091.794922,4188.717773,0.000000,3.000000,55.000000,,,,0.000000,4.000000,4.000000,4.000000,4.000000,4.000000,100.000000,,,,,,,,29.000000,0.000000,0.231414,0.616943,0.226563,-0.717285,1.006851,0.036133,-0.133791,-11.825890,9.489231,57.340412
1618378641.920021,59.000000,0.000000,4207.692383,4194.871582,4131.794922,4108.717773,4196.410156,0.000000,3.000000,55.000000,,,,0.000000,4.000000,4.000000,4.000000,4.000000,4.000000,100.000000,,,,,,,,,,,,,,,,,,,
1618378641.927840,60.000000,0.000000,4200.512695,4197.948730,4125.641113,4110.256348,4194.358887,0.000000,3.000000,55.000000,,,,0.000000,4.000000,4.000000,4.000000,4.000000,4.000000,100.000000,,,,,,,,30.000000,0.000000,0.231414,0.616943,0.226563,-0.717285,0.984878,0.040040,-0.125978,-11.719977,8.121600,58.066433
1618378641.935658,61.000000,0.000000,4197.948730,4195.384766,4116.410156,4082.564209,4194.871582,0.000000,3.000000,55.000000,,,,0.000000,4.000000,4.000000,4.000000,4.000000,4.000000,100.000000,,,,,,,,,,,,,,,,,,,
1618378641.943577,62.000000,0.000000,4204.615234,4190.769043,4123.077148,4088.718018,4202.051270,0.000000,3.000000,55.000000,,,,0.000000,4.000000,4.000000,4.000000,4.000000,4.000000,100.000000,,,,,,,,31.000000,0.000000,0.231414,0.616943,0.226563,-0.717285,0.987808,0.036622,-0.143557,-11.684472,10.718916,58.719849
1618378641.951395,63.000000,0.000000,4207.179688,4187.692383,4126.153809,4128.717773,4209.230957,0.000000,3.000000,55.000000,,,,0.000000,4.000000,4.000000,4.000000,4.000000,4.000000,100.000000,,,,,,,,,,,,,,,,,,,
1618378641.959214,64.000000,0.000000,4206.153809,4196.922852,4124.615234,4131.794922,4211.282227,450.000000,3.000000,55.000000,,,,0.000000,4.000000,4.000000,4.000000,4.000000,4.000000,100.000000,,,,,,,,32.000000,0.000000,0.231414,0.616943,0.226563,-0.717285,0.982437,0.039063,-0.133791,-11.712332,9.168502,59.367737
1618378641.967032,65.000000,0.000000,4200.512695,4204.102539,4129.743652,4109.743652,4207.179688,450.000000,3.000000,55.000000,,,,0.000000,4.000000,4.000000,4.000000,4.000000,4.000000,100.000000,,,,,,,,,,,,,,,,,,,
1618378641.974850,66.000000,0.000000,4192.307617,4198.461426,4132.820313,4109.230957,4207.179688,16233.000000,3.000000,55.000000,,,,0.000000,4.000000,4.000000,4.000000,4.000000,4.000000,100.000000,,,,,,,,33.000000,0.000000,0.231174,0.616943,0.226807,-0.717285,1.013687,0.046387,-0.141604,-11.737406,7.832944,59.711578
1618378641.982669,67.000000,0.000000,4194.871582,4189.230957,4133.846191,4113.846191,4211.794922,450.000000,3.000000,55.000000,,,,0.000000,4.000000,4.000000,4.000000,4.000000,4.000000,100.000000,,,,,,,,,,,,,,,,,,,
1618378641.990487,68.000000,0.000000,4193.333496,4188.205078,4129.743652,4109.230957,4207.692383,16218.000000,3.000000,55.000000,,,,0.000000,4.000000,4.000000,4.000000,4.000000,4.000000,100.000000,,,,,,,,34.000000,0.000000,0.231692,0.616943,0.227051,-0.717041,1.006363,0.036133,-0.132326,-11.759973,10.399310,58.346203
1618378641.998306,69.000000,0.000000,4180.000000,4191.794922,4116.410156,4100.512695,4196.922852,450.000000,3.000000,55.000000,,,,0.000000,4.000000,4.000000,4.000000,4.000000,4.000000,100.000000,,,,,,,,,,,,,,,,,,,
1618378642.006124,70.000000,0.000000,4173.846191,4187.692383,4107.179688,4082.051270,4190.256348,16202.000000,3.000000,55.000000,,,,0.000000,4.000000,4.000000,4.000000,4.000000,4.000000,100.000000,,,,,,,,35.000000,0.000000,0.231041,0.617188,0.227051,-0.717041,0.995621,0.033204,-0.147463,-11.780283,12.709040,58.852013
1618378642.014043,71.000000,0.000000,4180.000000,4178.974121,4106.666504,4083.076904,4182.051270,450.000000,3.000000,55.000000,,,,0.000000,4.000000,4.000000,4.000000,4.000000,4.000000,100.000000,,,,,,,,,,,,,,,,,,,
1618378642.021861,72.000000,0.000000,4186.153809,4178.461426,4108.205078,4107.179688,4173.333496,450.000000,3.000000,55.000000,,,,0.000000,4.000000,4.000000,4.000000,4.000000,4.000000,100.000000,,,,,,,,36.000000,0.000000,0.231041,0.617188,0.227051,-0.717041,0.985367,0.045411,-0.132815,-11.619116,10.959613,59.546501
1618378642.029680,73.000000,0.000000,4186.153809,4184.615234,4107.692383,4102.563965,4174.871582,16226.000000,3.000000,55.000000,,,,0.000000,4.000000,4.000000,4.000000,4.000000,4.000000,100.000000,,,,,,,,,,,,,,,,,,,
1618378642.037498,74.000000,0.000000,4185.641113,4183.589844,4111.794922,4078.974365,4177.436035,450.000000,3.000000,55.000000,,,,0.000000,4.000000,4.000000,4.000000,4.000000,4.000000,100.000000,,,,,,,,37.000000,0.000000,0.231041,0.617188,0.227051,-0.717041,0.992691,0.055665,-0.127932,-11.713326,9.205683,60.051910
1618378642.045317,75.000000,0.000000,4191.794922,4187.692383,4121.538574,4083.076904,4175.384766,16224.000000,3.000000,55.000000,,,,0.000000,4.000000,4.000000,4.000000,4.000000,4.000000,100.000000,,,,,,,,,,,,,,,,,,,
1618378642.053135,76.000000,0.000000,4198.974121,4193.846191,4122.563965,4104.102539,4177.436035,450.000000,3.000000,55.000000,,,,0.000000,4.000000,4.000000,4.000000,4.000000,4.000000,100.000000,,,,,,,,38.000000,0.000000,0.231041,0.617188,0.227051,-0.717041,0.996109,0.050782,-0.142580,-11.738301,7.686961,60.506779
1618378642.060953,77.000000,0.000000,4193.333496,4180.000000,4112.307617,4105.641113,4175.897461,450.000000,3.000000,55.000000,,,,0.000000,4.000000,4.000000,4.000000,4.000000,4.000000,100.000000,,,,,,,,,,,,,,,,,,,
1618378642.068772,78.000000,0.000000,4192.307617,4168.717773,4110.769043,4089.743652,4170.769043,450.000000,3.000000,55.000000,,,,0.000000,4.000000,4.000000,4.000000,4.000000,4.000000,100.000000,,,,,,,,39.000000,0.000000,0.231041,0.617188,0.227051,-0.717041,0.982925,0.040040,-0.145510,-11.760778,6.379926,60.975975
1618378642.076590,79.000000,0.000000,4208.717773,4182.051270,4117.436035,4093.333252,4170.769043,16224.000000,3.000000,55.000000,,,,0.000000,4.000000,4.000000,4.000000,4.000000,4.000000,100.000000,,,,,,,,,,,,,,,,,,,
1618378642.084507,80.000000,0.000000,4219.487305,4193.846191,4122.051270,4113.333496,4175.384766,450.000000,3.000000,55.000000,,,,0.000000,4.000000,4.000000,4.000000,4.000000,4.000000,100.000000,,,,,,,,40.000000,0.000000,0.231557,0.617188,0.227295,-0.716797,0.993179,0.043458,-0.142092,-11.781008,5.263411,61.398254
1618378642.092324,81.000000,0.000000,4220.512695,4190.769043,4124.615234,4107.179688,4186.666504,450.000000,3.000000,55.000000,,,,0.000000,4.000000,4.000000,4.000000,4.000000,4.000000,100.000000,,,,,,,,,,,,,,,,,,,
1618378642.100243,82.000000,0.000000,4226.666504,4193.846191,4129.743652,4097.948730,4196.410156,450.000000,3.000000,55.000000,,,,0.000000,4.000000,4.000000,4.000000,4.000000,4.000000,100.000000,,,,,,,,41.000000,0.000000,0.231557,0.617188,0.227295,-0.716797,0.981460,0.027832,-0.153323,-11.799214,4.258547,61.718487
1618378642.108061,83.000000,0.000000,4231.282227,4202.051270,4139.487305,4115.897461,4196.410156,16224.000000,3.000000,55.000000,,,,0.000000,4.000000,4.000000,4.000000,4.000000,4.000000,100.000000,,,,,,,,,,,,,,,,,,,
1618378642.115880,84.000000,0.000000,4229.743652,4203.077148,4145.128418,4135.384766,4193.846191,450.000000,3.000000,55.000000,,,,0.000000,4.000000,4.000000,4.000000,4.000000,4.000000,100.000000,,,,,,,,42.000000,0.000000,0.231557,0.617188,0.227295,-0.716797,0.984878,0.047852,-0.146487,-11.695970,3.174723,62.006699
1618378642.123698,85.000000,0.000000,4231.794922,4203.589844,4145.128418,4128.717773,4198.461426,450.000000,3.000000,55.000000,,,,0.000000,4.000000,4.000000,4.000000,4.000000,4.000000,100.000000,,,,,,,,,,,,,,,,,,,
1618378642.131517,86.000000,0.000000,4240.512695,4209.743652,4149.743652,4116.410156,4208.717773,450.000000,3.000000,55.000000,,,,0.000000,4.000000,4.000000,4.000000,4.000000,4.000000,100.000000,,,,,,,,43.000000,0.000000,0.231557,0.617188,0.227295,-0.716797,0.991714,0.025879,-0.134279,-11.662865,2.378728,62.086643
1618378642.139335,87.000000,0.000000,4237.436035,4207.692383,4151.794922,4121.025879,4207.179688,16224.000000,3.000000,55.000000,,,,0.000000,4.000000,4.000000,4.000000,4.000000,4.000000,100.000000,,,,,,,,,,,,,,,,,,,
1618378642.147153,88.000000,0.000000,4215.897461,4200.512695,4143.077148,4133.846191,4194.358887,450.000000,3.000000,55.000000,,,,0.000000,4.000000,4.000000,4.000000,4.000000,4.000000,100.000000,,,,,,,,44.000000,0.000000,0.231318,0.617188,0.227539,-0.716797,1.002457,0.047852,-0.133791,-11.752701,5.430700,60.304314
1618378642.154972,89.000000,0.000000,4208.205078,4204.102539,4132.307617,4132.820313,4190.256348,450.000000,3.000000,55.000000,,,,0.000000,4.000000,4.000000,4.000000,4.000000,4.000000,100.000000,,,,,,,,,,,,,,,,,,,
1618378642.162790,90.000000,0.000000,4218.974121,4212.307617,4128.717773,4125.128418,4196.410156,450.000000,3.000000,55.000000,,,,0.000000,4.000000,4.000000,4.000000,4.000000,4.000000,100.000000,,,,,,,,45.000000,0.000000,0.231968,0.616943,0.227539,-0.716797,1.007828,0.039063,-0.149416,-11.833553,4.409107,58.819851
1618378642.170708,91.000000,0.000000,4219.487305,4212.820313,4136.922852,4130.769043,4194.871582,16224.000000,3.000000,55.000000,,,,0.000000,4.000000,4.000000,4.000000,4.000000,4.000000,100.000000,,,,,,,,,,,,,,,,,,,
1618378642.178526,92.000000,0.000000,4209.743652,4203.589844,4141.025879,4127.179688,4190.769043,450.000000,3.000000,55.000000,,,,0.000000,4.000000,4.000000,4.000000,4.000000,4.000000,100.000000,,,,,,,,46.000000,0.000000,0.231728,0.616943,0.227783,-0.716797,0.988785,0.038575,-0.133303,-11.906321,3.489674,59.397926
1618378642.186344,93.000000,0.000000,4208.205078,4190.769043,4135.897461,4117.436035,4188.717773,450.000000,3.000000,55.000000,,,,0.000000,4.000000,4.000000,4.000000,4.000000,4.000000,100.000000,,,,,,,,,,,,,,,,,,,
1618378642.194162,94.000000,0.000000,4214.358887,4193.333496,4137.948730,4125.641113,4188.205078,450.000000,3.000000,55.000000,,,,0.000000,4.000000,4.000000,4.000000,4.000000,4.000000,100.000000,,,,,,,,47.000000,0.000000,0.231728,0.616943,0.227783,-0.716797,0.979995,0.032715,-0.130373,-11.971811,6.430551,57.884468
1618378642.201980,95.000000,0.000000,4218.461426,4203.589844,4142.051270,4133.333496,4191.794922,16224.000000,3.000000,55.000000,,,,0.000000,4.000000,4.000000,4.000000,4.000000,4.000000,100.000000,,,,,,,,,,,,,,,,,,,
1618378642.209798,96.000000,0.000000,4214.871582,4199.487305,4137.948730,4135.897461,4188.717773,450.000000,3.000000,55.000000,,,,0.000000,4.000000,4.000000,4.000000,4.000000,4.000000,100.000000,,,,,,,,48.000000,0.000000,0.231488,0.616943,0.228027,-0.716797,1.000504,0.051270,-0.138674,-11.911122,5.308973,58.615898
1618378642.217616,97.000000,0.000000,4209.743652,4193.846191,4137.948730,4135.384766,4178.461426,450.000000,3.000000,55.000000,,,,0.000000,4.000000,4.000000,4.000000,4.000000,4.000000,100.000000,,,,,,,,,,,,,,,,,,,
1618378642.225434,98.000000,0.000000,4217.948730,4207.179688,4145.641113,4124.615234,4183.589844,450.000000,3.000000,55.000000,,,,0.000000,4.000000,4.000000,4.000000,4.000000,4.000000,100.000000,,,,,,,,49.000000,0.000000,0.231728,0.616943,0.227783,-0.716797,0.988785,0.038575,-0.133303,-11.916317,4.179922,57.300274
1618378642.233352,99.000000,0.000000,4227.179688,4220.000000,4145.641113,4123.077148,4195.897461,16224.000000,3.000000,55.000000,,,,0.000000,4.000000,4.000000,4.000000,4.000000,4.000000,100.000000,,,,,,,,,,,,,,,,,,,
1618378642.241170,100.000000,0.000000,4224.102539,4221.025879,4142.051270,4140.000000,4192.820313,450.000000,3.000000,55.000000,,,,0.000000,4.000000,4.000000,4.000000,4.000000,4.000000,100.000000,,,,,,,,50.000000,0.000000,0.231488,0.616943,0.228027,-0.716797,1.001480,0.037598,-0.137209,-11.861177,7.111590,57.910675
1618378642.248989,101.000000,0.000000,4217.948730,4217.436035,4142.051270,4141.025879,4186.153809,450.000000,3.000000,55.000000,,,,0.000000,4.000000,4.000000,4.000000,4.000000,4.000000,100.000000,,,,,,,,,,,,,,,,,,,
1618378642.256807,102.000000,0.000000,4216.922852,4208.717773,4145.128418,4131.794922,4191.794922,450.000000,3.000000,55.000000,,,,0.000000,4.000000,4.000000,4.000000,4.000000,4.000000,100.000000,,,,,,,,51.000000,0.000000,0.231488,0.616943,0.228027,-0.716797,0.987808,0.045411,-0.138186,-11.990998,5.981724,58.519852
1618378642.264625,103.000000,0.000000,4221.538574,4206.153809,4149.230957,4138.974121,4198.974121,16224.000000,3.000000,55.000000,,,,0.000000,4.000000,4.000000,4.000000,4.000000,4.000000,100.000000,,,,,,,,,,,,,,,,,,,
1618378642.272443,104.000000,0.000000,4224.102539,4218.974121,4149.230957,4148.205078,4196.922852,450.000000,3.000000,55.000000,,,,0.000000,4.000000,4.000000,4.000000,4.000000,4.000000,100.000000,,,,,,,,52.000000,0.000000,0.231141,0.616699,0.228271,-0.717041,1.000504,0.046387,-0.136233,-11.928390,8.793027,59.187744
1618378642.280262,105.000000,0.000000,4221.025879,4224.615234,4144.615234,4134.358887,4194.358887,450.000000,3.000000,55.000000,,,,0.000000,4.000000,4.000000,4.000000,4.000000,4.000000,100.000000,,,,,,,,,,,,,,,,,,,
1618378642.288080,106.000000,0.000000,4221.025879,4221.025879,4146.666504,4116.410156,4199.487305,450.000000,3.000000,55.000000,,,,0.000000,4.000000,4.000000,4.000000,4.000000,4.000000,100.000000,,,,,,,,53.000000,0.000000,0.231141,0.616699,0.228271,-0.717041,0.993179,0.043458,-0.138186,-11.872043,7.375386,59.729027
1618378642.295998,107.000000,0.000000,4230.256348,4227.692383,4157.436035,4128.717773,4208.717773,16224.000000,3.000000,55.000000,,,,0.000000,4.000000,4.000000,4.000000,4.000000,4.000000,100.000000,,,,,,,,,,,,,,,,,,,
1618378642.303817,108.000000,0.000000,4234.358887,4229.743652,4156.922852,4145.128418,4209.230957,450.000000,3.000000,55.000000,,,,0.000000,4.000000,4.000000,4.000000,4.000000,4.000000,100.000000,,,,,,,,54.000000,0.000000,0.230900,0.616699,0.228516,-0.717041,1.000992,0.050294,-0.134768,-11.940961,6.159325,58.302094
1618378642.311635,109.000000,0.000000,4229.743652,4220.512695,4146.153809,4136.410156,4204.102539,450.000000,3.000000,55.000000,,,,0.000000,4.000000,4.000000,4.000000,4.000000,4.000000,100.000000,,,,,,,,,,,,,,,,,,,
1618378642.319454,110.000000,0.000000,4230.769043,4225.128418,4149.743652,4124.102539,4207.692383,450.000000,3.000000,55.000000,,,,0.000000,4.000000,4.000000,4.000000,4.000000,4.000000,100.000000,,,,,,,,55.000000,0.000000,0.230900,0.616699,0.228516,-0.717041,0.991714,0.040040,-0.140627,-11.883357,5.005054,57.077667
1618378642.327272,111.000000,0.000000,4237.436035,4225.641113,4161.025879,4124.102539,4210.769043,16224.000000,3.000000,55.000000,,,,0.000000,4.000000,4.000000,4.000000,4.000000,4.000000,100.000000,,,,,,,,,,,,,,,,,,,
1618378642.335090,112.000000,0.000000,4238.461426,4215.384766,4158.974121,4134.871582,4209.230957,450.000000,3.000000,55.000000,,,,0.000000,4.000000,4.000000,4.000000,4.000000,4.000000,100.000000,,,,,,,,56.000000,0.000000,0.230794,0.616455,0.228516,-0.717285,0.993179,0.043946,-0.145510,-11.891329,3.966210,57.770145
1618378642.342909,113.000000,0.000000,4237.436035,4223.589844,4155.897461,4145.641113,4214.358887,450.000000,3.000000,55.000000,,,,0.000000,4.000000,4.000000,4.000000,4.000000,4.000000,100.000000,,,,,,,,,,,,,,,,,,,
1618378642.350727,114.000000,0.000000,4242.563965,4236.410156,4168.205078,4144.615234,4223.077148,450.000000,3.000000,55.000000,,,,0.000000,4.000000,4.000000,4.000000,4.000000,4.000000,100.000000,,,,,,,,57.000000,0.000000,0.230552,0.616455,0.228760,-0.717285,0.994156,0.040040,-0.141115,-11.898503,6.919250,58.393375
1618378642.358546,115.000000,0.000000,4250.769043,4236.922852,4173.333496,4152.307617,4229.230957,16224.000000,3.000000,55.000000,,,,0.000000,4.000000,4.000000,4.000000,4.000000,4.000000,100.000000,,,,,,,,,,,,,,,,,,,
1618378642.366464,116.000000,0.000000,4256.922852,4238.974121,4170.256348,4167.692383,4234.358887,450.000000,3.000000,55.000000,,,,0.000000,4.000000,4.000000,4.000000,4.000000,4.000000,100.000000,,,,,,,,58.000000,0.000000,0.230794,0.616455,0.228516,-0.717285,1.012223,0.047364,-0.140627,-11.785330,5.748802,59.073910
1618378642.374283,117.000000,0.000000,4255.897461,4242.051270,4170.769043,4158.974121,4230.769043,450.000000,3.000000,55.000000,,,,0.000000,4.000000,4.000000,4.000000,4.000000,4.000000,100.000000,,,,,,,,,,,,,,,,,,,
1618378642.382101,118.000000,0.000000,4249.230957,4238.461426,4173.846191,4148.205078,4224.615234,450.000000,3.000000,55.000000,,,,0.000000,4.000000,4.000000,4.000000,4.000000,4.000000,100.000000,,,,,,,,59.000000,0.000000,0.231203,0.616211,0.228760,-0.717285,1.002945,0.056641,-0.151369,-11.803103,4.635583,59.566765
1618378642.389920,119.000000,0.000000,4249.230957,4239.487305,4178.461426,4157.948730,4227.179688,16224.000000,3.000000,55.000000,,,,0.000000,4.000000,4.000000,4.000000,4.000000,4.000000,100.000000,1.000000,100.000000,4.000000,4.000000,4.000000,4.000000,4.000000,,,,,,,,,,,,
1618378642.397738,120.000000,0.000000,4256.922852,4243.077148,4180.512695,4163.589844,4229.743652,450.000000,3.000000,55.000000,,,,0.000000,4.000000,4.000000,4.000000,4.000000,4.000000,100.000000,,,,,,,,60.000000,0.000000,0.231203,0.616211,0.228760,-0.717285,0.991226,0.060548,-0.149416,-11.759285,3.633687,60.129963
1618378642.405556,121.000000,0.000000,4262.563965,4244.102539,4177.948730,4159.487305,4226.666504,450.000000,3.000000,55.000000,,,,0.000000,4.000000,4.000000,4.000000,4.000000,4.000000,100.000000,,,,,,,,,,,,,,,,,,,
1618378642.413375,122.000000,0.000000,4258.974121,4245.641113,4175.384766,4158.974121,4225.641113,450.000000,3.000000,55.000000,,,,0.000000,4.000000,4.000000,4.000000,4.000000,4.000000,100.000000,,,,,,,,61.000000,0.000000,0.231203,0.616211,0.228760,-0.717285,1.000504,0.053712,-0.139162,-11.839479,6.500348,58.662933
1618378642.421193,123.000000,0.000000,4245.641113,4231.282227,4174.871582,4154.358887,4220.512695,16224.000000,3.000000,55.000000,,,,0.000000,4.000000,4.000000,4.000000,4.000000,4.000000,100.000000,,,,,,,,,,,,,,,,,,,
1618378642.429012,124.000000,0.000000,4237.436035,4216.922852,4170.256348,4147.692383,4211.794922,450.000000,3.000000,55.000000,,,,0.000000,4.000000,4.000000,4.000000,4.000000,4.000000,100.000000,,,,,,,,62.000000,0.000000,0.231203,0.616211,0.228760,-0.717285,0.997574,0.047364,-0.140627,-11.971470,9.020528,57.222977
1618378642.436830,125.000000,0.000000,4242.051270,4224.615234,4155.897461,4149.743652,4210.769043,450.000000,3.000000,55.000000,,,,0.000000,4.000000,4.000000,4.000000,4.000000,4.000000,100.000000,,,,,,,,,,,,,,,,,,,
1618378642.444747,126.000000,0.000000,4238.974121,4227.692383,4142.563965,4140.512695,4208.205078,450.000000,3.000000,55.000000,,,,0.000000,4.000000,4.000000,4.000000,4.000000,4.000000,100.000000,,,,,,,,63.000000,0.000000,0.230552,0.616455,0.228760,-0.717285,0.998550,0.055665,-0.135256,-11.910814,7.460505,56.046650
1618378642.452565,127.000000,0.000000,4232.820313,4224.102539,4147.692383,4129.743652,4204.615234,234.000000,3.000000,55.000000,,,,0.000000,4.000000,4.000000,4.000000,4.000000,4.000000,100.000000,,,,,,,,,,,,,,,,,,,
1618378642.460382,0.000000,0.000000,4248.717773,4235.897461,4163.589844,4144.615234,4214.871582,450.000000,3.000000,55.000000,,,,0.000000,4.000000,4.000000,4.000000,4.000000,4.000000,100.000000,,,,,,,,0.000000,0.000000,0.230794,0.616455,0.228516,-0.717285,1.001968,0.050294,-0.141604,-11.856225,10.064116,54.928135
1618378642.468300,1.000000,0.000000,4265.641113,4245.641113,4174.358887,4156.922852,4228.205078,450.000000,3.000000,55.000000,,,,0.000000,4.000000,4.000000,4.000000,4.000000,4.000000,100.000000,,,,,,,,,,,,,,,,,,,
1618378642.476119,2.000000,0.000000,4260.512695,4240.512695,4174.871582,4144.615234,4227.179688,16232.000000,3.000000,55.000000,,,,0.000000,4.000000,4.000000,4.000000,4.000000,4.000000,100.000000,,,,,,,,1.000000,0.000000,0.230794,0.616455,0.228516,-0.717285,0.990250,0.045899,-0.139162,-11.747279,8.519365,56.015011
1618378642.483937,3.000000,0.000000,4256.922852,4240.000000,4170.256348,4135.897461,4220.512695,450.000000,3.000000,55.000000,,,,0.000000,4.000000,4.000000,4.000000,4.000000,4.000000,100.000000,,,,,,,,,,,,,,,,,,,
1618378642.491756,4.000000,0.000000,4261.538574,4240.000000,4164.615234,4145.641113,4221.025879,16216.000000,3.000000,55.000000,,,,0.000000,4.000000,4.000000,4.000000,4.000000,4.000000,100.000000,,,,,,,,2.000000,0.000000,0.230552,0.616455,0.228760,-0.717285,0.998550,0.055665,-0.135256,-11.709044,7.009460,54.959480
1618378642.499574,5.000000,0.000000,4252.820313,4233.333496,4161.025879,4149.743652,4223.589844,450.000000,3.000000,55.000000,,,,0.000000,4.000000,4.000000,4.000000,4.000000,4.000000,100.000000,,,,,,,,,,,,,,,,,,,
1618378642.507393,6.000000,0.000000,4241.025879,4227.179688,4159.487305,4147.692383,4222.051270,16198.000000,3.000000,55.000000,,,,0.000000,4.000000,4.000000,4.000000,4.000000,4.000000,100.000000,,,,,,,,3.000000,0.000000,0.230794,0.616455,0.228516,-0.717285,0.995621,0.037110,-0.145998,-11.614816,9.538544,55.923592
1618378642.515211,7.000000,0.000000,4240.512695,4221.025879,4153.846191,4142.051270,4215.897461,450.000000,3.000000,55.000000,,,,0.000000,4.000000,4.000000,4.000000,4.000000,4.000000,100.000000,,,,,,,,,,,,,,,,,,,
1618378642.523030,8.000000,0.000000,4243.589844,4223.077148,4147.692383,4126.666504,4212.307617,450.000000,3.000000,55.000000,,,,0.000000,4.000000,4.000000,4.000000,4.000000,4.000000,100.000000,,,,,,,,4.000000,0.000000,0.230794,0.616455,0.228516,-0.717285,1.006851,0.052735,-0.131838,-11.649641,12.053981,56.791290
1618378642.530848,9.000000,0.000000,4247.692383,4234.358887,4149.230957,4126.666504,4218.461426,16219.000000,3.000000,55.000000,,,,0.000000,4.000000,4.000000,4.000000,4.000000,4.000000,100.000000,,,,,,,,,,,,,,,,,,,
1618378642.538766,10.000000,0.000000,4250.769043,4242.563965,4157.948730,4142.051270,4223.077148,450.000000,3.000000,55.000000,,,,0.000000,4.000000,4.000000,4.000000,4.000000,4.000000,100.000000,,,,,,,,5.000000,0.000000,0.231686,0.616211,0.228271,-0.717285,0.996597,0.045411,-0.154788,-11.621169,14.198243,55.717945
1618378642.546583,11.000000,0.000000,4247.179688,4237.948730,4164.615234,4145.641113,4220.000000,16222.000000,3.000000,55.000000,,,,0.000000,4.000000,4.000000,4.000000,4.000000,4.000000,100.000000,,,,,,,,,,,,,,,,,,,
1618378642.554401,12.000000,0.000000,4243.589844,4229.743652,4162.563965,4140.512695,4221.025879,450.000000,3.000000,55.000000,,,,0.000000,4.000000,4.000000,4.000000,4.000000,4.000000,100.000000,,,,,,,,6.000000,0.000000,0.231686,0.616211,0.228271,-0.717285,0.995621,0.033204,-0.148928,-11.475913,12.180265,56.546394
1618378642.562219,13.000000,0.000000,4243.589844,4230.256348,4157.436035,4139.487305,4222.563965,450.000000,3.000000,55.000000,,,,0.000000,4.000000,4.000000,4.000000,4.000000,4.000000,100.000000,,,,,,,,,,,,,,,,,,,
1618378642.570037,14.000000,0.000000,4241.538574,4231.794922,4154.871582,4135.384766,4215.384766,450.000000,3.000000,55.000000,,,,0.000000,4.000000,4.000000,4.000000,4.000000,4.000000,100.000000,,,,,,,,7.000000,0.000000,0.231926,0.616211,0.228027,-0.717285,0.996109,0.044434,-0.136721,-11.524630,14.311899,57.292000
1618378642.577854,15.000000,0.000000,4240.512695,4230.769043,4150.769043,4134.871582,4209.743652,16222.000000,3.000000,55.000000,,,,0.000000,4.000000,4.000000,4.000000,4.000000,4.000000,100.000000,,,,,,,,,,,,,,,,,,,
1618378642.585773,16.000000,0.000000,4241.025879,4230.256348,4147.692383,4133.333496,4212.307617,0.000000,3.000000,55.000000,,,,0.000000,4.000000,4.000000,4.000000,4.000000,4.000000,100.000000,,,,,,,,8.000000,0.000000,0.231410,0.616211,0.227783,-0.717529,0.992203,0.039063,-0.145998,-11.448843,16.050924,58.022858
1618378642.593591,17.000000,0.000000,4239.487305,4229.230957,4144.102539,4109.230957,4213.333496,0.000000,3.000000,55.000000,,,,0.000000,4.000000,4.000000,4.000000,4.000000,4.000000,100.000000,,,,,,,,,,,,,,,,,,,
1618378642.601409,18.000000,0.000000,4236.410156,4230.256348,4140.512695,4109.743652,4212.307617,0.000000,3.000000,55.000000,,,,0.000000,4.000000,4.000000,4.000000,4.000000,4.000000,100.000000,,,,,,,,9.000000,0.000000,0.231410,0.616211,0.227783,-0.717529,0.980484,0.041016,-0.151369,-11.320820,14.027123,58.620819
1618378642.609227,19.000000,0.000000,4235.897461,4239.487305,4151.794922,4152.820313,4215.384766,0.000000,3.000000,55.000000,,,,0.000000,4.000000,4.000000,4.000000,4.000000,4.000000,100.000000,,,,,,,,,,,,,,,,,,,
1618378642.617045,20.000000,0.000000,4241.025879,4243.589844,4161.538574,4161.538574,4217.948730,0.000000,3.000000,55.000000,,,,0.000000,4.000000,4.000000,4.000000,4.000000,4.000000,100.000000,,,,,,,,10.000000,0.000000,0.231410,0.616211,0.227783,-0.717529,1.001480,0.045411,-0.131838,-11.325230,15.854441,59.218796
1618378642.624864,21.000000,0.000000,4238.974121,4238.974121,4151.282227,4128.205078,4212.820313,0.000000,3.000000,55.000000,,,,0.000000,4.000000,4.000000,4.000000,4.000000,4.000000,100.000000,,,,,,,,,,,,,,,,,,,
1618378642.632682,22.000000,0.000000,4227.179688,4236.922852,4146.153809,4120.000000,4207.692383,0.000000,3.000000,55.000000,,,,0.000000,4.000000,4.000000,4.000000,4.000000,4.000000,100.000000,,,,,,,,11.000000,0.000000,0.231650,0.616211,0.227539,-0.717529,0.999527,0.042481,-0.141115,-11.448830,13.910105,59.756973
1618378642.640500,23.000000,0.000000,4225.128418,4231.794922,4160.000000,4136.922852,4215.384766,0.000000,3.000000,55.000000,,,,0.000000,4.000000,4.000000,4.000000,4.000000,4.000000,100.000000,,,,,,,,,,,,,,,,,,,
1618378642.648318,24.000000,0.000000,4231.794922,4233.333496,4168.717773,4135.384766,4222.563965,0.000000,3.000000,55.000000,,,,0.000000,4.000000,4.000000,4.000000,4.000000,4.000000,100.000000,,,,,,,,12.000000,0.000000,0.231650,0.616211,0.227539,-0.717529,0.993667,0.044434,-0.131350,-11.320807,12.100387,60.181522
1618378642.656236,25.000000,0.000000,4228.717773,4238.461426,4157.436035,4116.410156,4214.358887,0.000000,3.000000,55.000000,,,,0.000000,4.000000,4.000000,4.000000,4.000000,4.000000,100.000000,,,,,,,,,,,,,,,,,,,
1618378642.664053,26.000000,0.000000,4218.974121,4229.230957,4145.128418,4112.820313,4198.461426,0.000000,3.000000,55.000000,,,,0.000000,4.000000,4.000000,4.000000,4.000000,4.000000,100.000000,,,,,,,,13.000000,0.000000,0.231543,0.615967,0.227539,-0.717773,0.994644,0.036622,-0.143557,-11.325219,10.471641,60.623428
1618378642.671871,27.000000,0.000000,4212.820313,4221.025879,4142.051270,4118.974121,4192.307617,0.000000,3.000000,55.000000,,,,0.000000,4.000000,4.000000,4.000000,4.000000,4.000000,100.000000,,,,,,,,,,,,,,,,,,,
1618378642.679688,28.000000,0.000000,4218.461426,4229.743652,4145.641113,4108.717773,4205.641113,0.000000,3.000000,55.000000,,,,0.000000,4.000000,4.000000,4.000000,4.000000,4.000000,100.000000,,,,,,,,14.000000,0.000000,0.231543,0.615967,0.227539,-0.717773,0.993667,0.037110,-0.147951,-11.329189,9.005769,60.961330
1618378642.687506,29.000000,0.000000,4232.307617,4233.846191,4152.820313,4114.358887,4222.051270,0.000000,3.000000,55.000000,,,,0.000000,4.000000,4.000000,4.000000,4.000000,4.000000,100.000000,,,,,,,,,,,,,,,,,,,
1618378642.695424,30.000000,0.000000,4233.846191,4228.205078,4155.897461,4135.897461,4224.102539,0.000000,3.000000,55.000000,,,,0.000000,4.000000,4.000000,4.000000,4.000000,4.000000,100.000000,,,,,,,,15.000000,0.000000,0.231543,0.615967,0.227539,-0.717773,1.010269,0.042969,-0.139162,-11.452393,11.454852,61.385071
1618378642.703243,31.000000,0.000000,4217.436035,4224.615234,4146.666504,4123.077148,4208.205078,0.000000,3.000000,55.000000,,,,0.000000,4.000000,4.000000,4.000000,4.000000,4.000000,100.000000,,,,,,,,,,,,,,,,,,,
1618378642.711061,32.000000,0.000000,4206.666504,4220.512695,4138.461426,4097.436035,4196.410156,0.000000,3.000000,55.000000,,,,0.000000,4.000000,4.000000,4.000000,4.000000,4.000000,100.000000,,,,,,,,16.000000,0.000000,0.232191,0.615723,0.227539,-0.717773,0.999039,0.046876,-0.159182,-11.443645,13.718843,61.766441
1618378642.718880,33.000000,0.000000,4216.410156,4226.153809,4147.692383,4112.307617,4206.666504,0.000000,3.000000,55.000000,,,,0.000000,4.000000,4.000000,4.000000,4.000000,4.000000,100.000000,,,,,,,,,,,,,,,,,,,
1618378642.726698,34.000000,0.000000,4233.846191,4242.563965,4163.589844,4142.051270,4226.666504,0.000000,3.000000,55.000000,,,,0.000000,4.000000,4.000000,4.000000,4.000000,4.000000,100.000000,,,,,,,,17.000000,0.000000,0.232430,0.615723,0.227295,-0.717773,0.994644,0.048829,-0.137209,-11.495588,15.576988,60.255394
1618378642.734516,35.000000,0.000000,4245.641113,4245.641113,4163.077148,4146.153809,4236.922852,0.000000,3.000000,55.000000,,,,0.000000,4.000000,4.000000,4.000000,4.000000,4.000000,100.000000,,,,,,,,,,,,,,,,,,,
1618378642.742335,36.000000,0.000000,4242.051270,4237.948730,4151.794922,4138.974121,4234.871582,0.000000,3.000000,55.000000,,,,0.000000,4.000000,4.000000,4.000000,4.000000,4.000000,100.000000,,,,,,,,18.000000,0.000000,0.232430,0.615723,0.227295,-0.717773,0.987808,0.041016,-0.139651,-11.482521,13.480951,60.630100
1618378642.750153,37.000000,0.000000,4228.717773,4238.461426,4148.205078,4137.436035,4232.307617,0.000000,3.000000,55.000000,,,,0.000000,4.000000,4.000000,4.000000,4.000000,4.000000,100.000000,,,,,,,,,,,,,,,,,,,
1618378642.757972,38.000000,0.000000,4222.563965,4238.461426,4152.820313,4142.051270,4230.256348,0.000000,3.000000,55.000000,,,,0.000000,4.000000,4.000000,4.000000,4.000000,4.000000,100.000000,,,,,,,,19.000000,0.000000,0.231675,0.615723,0.227295,-0.718018,0.992203,0.036622,-0.134768,-11.590392,11.714149,61.206596
1618378642.765890,39.000000,0.000000,4226.153809,4236.410156,4154.871582,4141.538574,4228.205078,0.000000,3.000000,55.000000,,,,0.000000,4.000000,4.000000,4.000000,4.000000,4.000000,100.000000,,,,,,,,,,,,,,,,,,,
1618378642.773709,40.000000,0.000000,4228.717773,4238.461426,4151.282227,4122.051270,4227.692383,0.000000,3.000000,55.000000,,,,0.000000,4.000000,4.000000,4.000000,4.000000,4.000000,100.000000,,,,,,,,20.000000,0.000000,0.231914,0.615723,0.227051,-0.718018,0.982437,0.033204,-0.138674,-11.448214,10.064211,61.545994
1618378642.781527,41.000000,0.000000,4225.641113,4229.230957,4152.307617,4105.128418,4231.794922,0.000000,3.000000,55.000000,,,,0.000000,4.000000,4.000000,4.000000,4.000000,4.000000,100.000000,,,,,,,,,,,,,,,,,,,
1618378642.789346,42.000000,0.000000,4230.769043,4222.051270,4161.538574,4116.410156,4241.025879,0.000000,3.000000,55.000000,,,,0.000000,4.000000,4.000000,4.000000,4.000000,4.000000,100.000000,,,,,,,,21.000000,0.000000,0.232562,0.615479,0.227051,-0.718018,0.994644,0.037598,-0.137209,-11.439884,8.639082,61.911270
1618378642.797164,43.000000,0.000000,4244.615234,4243.077148,4169.743652,4133.846191,4245.128418,0.000000,3.000000,55.000000,,,,0.000000,4.000000,4.000000,4.000000,4.000000,4.000000,100.000000,,,,,,,,,,,,,,,,,,,
1618378642.804982,44.000000,0.000000,4239.487305,4252.307617,4167.179688,4128.717773,4235.897461,0.000000,3.000000,55.000000,,,,0.000000,4.000000,4.000000,4.000000,4.000000,4.000000,100.000000,,,,,,,,22.000000,0.000000,0.232323,0.615479,0.227295,-0.718018,1.001480,0.049317,-0.145998,-11.432388,7.236836,62.240017
1618378642.812801,45.000000,0.000000,4221.538574,4235.384766,4159.487305,4125.128418,4226.153809,0.000000,3.000000,55.000000,,,,0.000000,4.000000,4.000000,4.000000,4.000000,4.000000,100.000000,,,,,,,,,,,,,,,,,,,
1618378642.820619,46.000000,0.000000,4228.205078,4234.358887,4158.461426,4131.282227,4232.820313,0.000000,3.000000,55.000000,,,,0.000000,4.000000,4.000000,4.000000,4.000000,4.000000,100.000000,,,,,,,,23.000000,0.000000,0.231914,0.615723,0.227051,-0.718018,0.982437,0.033204,-0.138674,-11.545272,9.802998,60.621799
1618378642.828438,47.000000,0.000000,4249.743652,4247.692383,4165.641113,4132.820313,4244.615234,0.000000,3.000000,55.000000,,,,0.000000,4.000000,4.000000,4.000000,4.000000,4.000000,100.000000,,,,,,,,,,,,,,,,,,,
1618378642.836356,48.000000,0.000000,4247.692383,4245.641113,4166.666504,4136.410156,4243.589844,0.000000,3.000000,55.000000,,,,0.000000,4.000000,4.000000,4.000000,4.000000,4.000000,100.000000,,,,,,,,24.000000,0.000000,0.232323,0.615479,0.227295,-0.718018,1.001480,0.049317,-0.145998,-11.527237,8.284359,61.079494
1618378642.844174,49.000000,0.000000,4229.230957,4234.358887,4152.307617,4136.410156,4235.384766,0.000000,3.000000,55.000000,,,,0.000000,4.000000,4.000000,4.000000,4.000000,4.000000,100.000000,,,,,,,,,,,,,,,,,,,
1618378642.851992,50.000000,0.000000,4226.153809,4231.794922,4141.538574,4122.051270,4235.384766,0.000000,3.000000,55.000000,,,,0.000000,4.000000,4.000000,4.000000,4.000000,4.000000,100.000000,,,,,,,,25.000000,0.000000,0.232323,0.615479,0.227295,-0.718018,1.000504,0.042969,-0.142092,-11.630635,10.745769,59.577328
1618378642.859811,51.000000,0.000000,4237.948730,4238.461426,4146.153809,4113.333496,4240.512695,0.000000,3.000000,55.000000,,,,0.000000,4.000000,4.000000,4.000000,4.000000,4.000000,100.000000,,,,,,,,,,,,,,,,,,,
1618378642.867629,52.000000,0.000000,4243.077148,4242.051270,4154.358887,4130.256348,4241.538574,0.000000,3.000000,55.000000,,,,0.000000,4.000000,4.000000,4.000000,4.000000,4.000000,100.000000,,,,,,,,26.000000,0.000000,0.232084,0.615479,0.227539,-0.718018,1.000015,0.037110,-0.130861,-11.663879,9.252484,60.139469
1618378642.875447,53.000000,0.000000,4236.410156,4238.974121,4155.384766,4147.692383,4241.025879,0.000000,3.000000,55.000000,,,,0.000000,4.000000,4.000000,4.000000,4.000000,4.000000,100.000000,,,,,,,,,,,,,,,,,,,
1618378642.883265,54.000000,0.000000,4238.461426,4236.922852,4161.538574,4138.461426,4246.153809,0.000000,3.000000,55.000000,,,,0.000000,4.000000,4.000000,4.000000,4.000000,4.000000,100.000000,,,,,,,,27.000000,0.000000,0.232084,0.615479,0.227539,-0.718018,0.994644,0.047364,-0.143557,-11.693799,7.729082,60.645397
1618378642.891084,55.000000,0.000000,4255.897461,4242.563965,4176.922852,4140.512695,4251.282227,0.000000,3.000000,55.000000,,,,0.000000,4.000000,4.000000,4.000000,4.000000,4.000000,100.000000,1.000000,100.000000,4.000000,4.000000,4.000000,4.000000,4.000000,,,,,,,,,,,,
1618378642.898902,56.000000,0.000000,4258.974121,4248.205078,4175.897461,4160.512695,4244.615234,0.000000,3.000000,55.000000,,,,0.000000,4.000000,4.000000,4.000000,4.000000,4.000000,100.000000,,,,,,,,28.000000,0.000000,0.232084,0.615479,0.227539,-0.718018,1.005386,0.040040,-0.139651,-11.780541,6.358020,59.126827
1618378642.906820,57.000000,0.000000,4244.102539,4250.256348,4159.487305,4154.871582,4227.179688,0.000000,3.000000,55.000000,,,,0.000000,4.000000,4.000000,4.000000,4.000000,4.000000,100.000000,,,,,,,,,,,,,,,,,,,
1618378642.914639,58.000000,0.000000,4237.436035,4244.615234,4151.794922,4127.692383,4208.717773,0.000000,3.000000,55.000000,,,,0.000000,4.000000,4.000000,4.000000,4.000000,4.000000,100.000000,,,,,,,,29.000000,0.000000,0.232084,0.615479,0.227539,-0.718018,1.001968,0.044923,-0.133791,-11.798795,5.124064,59.674202
1618378642.922457,59.000000,0.000000,4240.000000,4237.948730,4156.922852,4114.871582,4205.128418,0.000000,3.000000,55.000000,,,,0.000000,4.000000,4.000000,4.000000,4.000000,4.000000,100.000000,,,,,,,,,,,,,,,,,,,
1618378642.930275,60.000000,0.000000,4242.051270,4247.692383,4165.641113,4117.948730,4215.897461,0.000000,3.000000,55.000000,,,,0.000000,4.000000,4.000000,4.000000,4.000000,4.000000,100.000000,,,,,,,,30.000000,0.000000,0.231435,0.615723,0.227539,-0.718018,1.008804,0.039551,-0.142580,-11.815223,4.013505,60.226658
1618378642.938094,61.000000,0.000000,4240.512695,4253.846191,4163.589844,4130.769043,4215.897461,0.000000,3.000000,55.000000,,,,0.000000,4.000000,4.000000,4.000000,4.000000,4.000000,100.000000,,,,,,,,,,,,,,,,,,,
1618378642.945912,62.000000,0.000000,4237.948730,4243.589844,4161.025879,4148.717773,4207.179688,0.000000,3.000000,55.000000,,,,0.000000,4.000000,4.000000,4.000000,4.000000,4.000000,100.000000,,,,,,,,31.000000,0.000000,0.232191,0.615723,0.227539,-0.717773,0.976577,0.040528,-0.150881,-11.830008,3.133631,60.664051
1618378642.953731,63.000000,0.000000,4240.000000,4238.974121,4165.641113,4154.358887,4213.333496,0.000000,3.000000,55.000000,,,,0.000000,4.000000,4.000000,4.000000,4.000000,4.000000,100.000000,,,,,,,,,,,,,,,,,,,
1618378642.961549,64.000000,0.000000,4239.487305,4238.461426,4155.384766,4141.025879,4215.384766,450.000000,3.000000,55.000000,,,,0.000000,4.000000,4.000000,4.000000,4.000000,4.000000,100.000000,,,,,,,,32.000000,0.000000,0.232191,0.615723,0.227539,-0.717773,1.001480,0.044434,-0.137697,-11.903130,2.341745,61.057705
1618378642.969368,65.000000,0.000000,4230.769043,4228.205078,4138.461426,4124.615234,4204.102539,450.000000,3.000000,55.000000,,,,0.000000,4.000000,4.000000,4.000000,4.000000,4.000000,100.000000,,,,,,,,,,,,,,,,,,,
1618378642.977286,66.000000,0.000000,4227.692383,4221.538574,4141.025879,4128.717773,4204.615234,16225.000000,3.000000,55.000000,,,,0.000000,4.000000,4.000000,4.000000,4.000000,4.000000,100.000000,,,,,,,,33.000000,0.000000,0.232599,0.615479,0.227783,-0.717773,1.002945,0.035157,-0.136233,-12.028754,1.509417,61.411995
1618378642.985104,67.000000,0.000000,4232.820313,4230.256348,4154.358887,4134.358887,4213.846191,450.000000,3.000000,55.000000,,,,0.000000,4.000000,4.000000,4.000000,4.000000,4.000000,100.000000,,,,,,,,,,,,,,,,,,,
1618378642.992922,68.000000,0.000000,4241.025879,4240.512695,4155.897461,4131.794922,4217.948730,16212.000000,3.000000,55.000000,,,,0.000000,4.000000,4.000000,4.000000,4.000000,4.000000,100.000000,,,,,,,,34.000000,0.000000,0.232360,0.615479,0.228027,-0.717773,0.994156,0.050782,-0.144045,-11.962371,4.767951,61.790668
1618378643.000741,69.000000,0.000000,4248.717773,4232.820313,4151.794922,4137.436035,4224.615234,450.000000,3.000000,55.000000,,,,0.000000,4.000000,4.000000,4.000000,4.000000,4.000000,100.000000,,,,,,,,,,,,,,,,,,,
1618378643.008559,70.000000,0.000000,4248.205078,4218.974121,4151.282227,4143.589844,4229.743652,16198.000000,3.000000,55.000000,,,,0.000000,4.000000,4.000000,4.000000,4.000000,4.000000,100.000000,,,,,,,,35.000000,0.000000,0.232360,0.615479,0.228027,-0.717773,0.985367,0.041993,-0.137209,-11.962441,3.872448,61.952030
1618378643.016377,71.000000,0.000000,4243.077148,4226.153809,4146.153809,4137.948730,4222.563965,450.000000,3.000000,55.000000,,,,0.000000,4.000000,4.000000,4.000000,4.000000,4.000000,100.000000,,,,,,,,,,,,,,,,,,,
1618378643.024195,72.000000,0.000000,4237.948730,4240.512695,4142.563965,4127.179688,4211.794922,450.000000,3.000000,55.000000,,,,0.000000,4.000000,4.000000,4.000000,4.000000,4.000000,100.000000,,,,,,,,36.000000,0.000000,0.232360,0.615479,0.228027,-0.717773,1.011734,0.039551,-0.144533,-11.902689,6.894680,60.362614
1618378643.032013,73.000000,0.000000,4236.922852,4239.487305,4150.256348,4128.717773,4211.282227,16227.000000,3.000000,55.000000,,,,0.000000,4.000000,4.000000,4.000000,4.000000,4.000000,100.000000,,,,,,,,,,,,,,,,,,,
1618378643.039832,74.000000,0.000000,4237.436035,4239.487305,4156.410156,4142.563965,4211.282227,450.000000,3.000000,55.000000,,,,0.000000,4.000000,4.000000,4.000000,4.000000,4.000000,100.000000,,,,,,,,37.000000,0.000000,0.232873,0.615479,0.228271,-0.717529,1.006851,0.043946,-0.135744,-11.848912,5.666873,58.991951
1618378643.047749,75.000000,0.000000,4233.846191,4241.538574,4150.769043,4149.230957,4205.641113,16222.000000,3.000000,55.000000,,,,0.000000,4.000000,4.000000,4.000000,4.000000,4.000000,100.000000,,,,,,,,,,,,,,,,,,,
1618378643.055566,76.000000,0.000000,4237.436035,4239.487305,4150.769043,4150.769043,4207.692383,450.000000,3.000000,55.000000,,,,0.000000,4.000000,4.000000,4.000000,4.000000,4.000000,100.000000,,,,,,,,38.000000,0.000000,0.232873,0.615479,0.228271,-0.717529,0.987320,0.028809,-0.131350,-11.740698,4.621663,59.792076
1618378643.063484,77.000000,0.000000,4247.692383,4249.743652,4164.615234,4160.000000,4220.000000,450.000000,3.000000,55.000000,,,,0.000000,4.000000,4.000000,4.000000,4.000000,4.000000,100.000000,,,,,,,,,,,,,,,,,,,
1618378643.071302,78.000000,0.000000,4253.333496,4257.948730,4171.794922,4156.410156,4222.051270,450.000000,3.000000,55.000000,,,,0.000000,4.000000,4.000000,4.000000,4.000000,4.000000,100.000000,,,,,,,,39.000000,0.000000,0.232634,0.615479,0.228516,-0.717529,0.997086,0.044434,-0.144045,-11.942381,7.449342,58.358837
1618378643.079119,79.000000,0.000000,4256.410156,4245.641113,4163.077148,4138.974121,4222.051270,16222.000000,3.000000,55.000000,,,,0.000000,4.000000,4.000000,4.000000,4.000000,4.000000,100.000000,,,,,,,,,,,,,,,,,,,
1618378643.086937,80.000000,0.000000,4256.922852,4241.025879,4155.897461,4138.461426,4229.743652,450.000000,3.000000,55.000000,,,,0.000000,4.000000,4.000000,4.000000,4.000000,4.000000,100.000000,,,,,,,,40.000000,0.000000,0.232394,0.615479,0.228760,-0.717529,0.994156,0.035157,-0.161135,-11.884635,6.046439,58.923195
1618378643.094755,81.000000,0.000000,4250.769043,4246.666504,4156.410156,4147.692383,4233.333496,450.000000,3.000000,55.000000,,,,0.000000,4.000000,4.000000,4.000000,4.000000,4.000000,100.000000,,,,,,,,,,,,,,,,,,,
1618378643.102573,82.000000,0.000000,4252.307617,4246.153809,4160.000000,4145.641113,4231.282227,450.000000,3.000000,55.000000,,,,0.000000,4.000000,4.000000,4.000000,4.000000,4.000000,100.000000,,,,,,,,41.000000,0.000000,0.232394,0.615479,0.228760,-0.717529,1.004898,0.055665,-0.145022,-12.071925,8.612009,57.576843
1618378643.110391,83.000000,0.000000,4255.897461,4244.615234,4161.025879,4143.077148,4228.717773,16222.000000,3.000000,55.000000,,,,0.000000,4.000000,4.000000,4.000000,4.000000,4.000000,100.000000,,,,,,,,,,,,,,,,,,,
1618378643.118309,84.000000,0.000000,4247.692383,4247.179688,4161.025879,4152.307617,4228.717773,450.000000,3.000000,55.000000,,,,0.000000,4.000000,4.000000,4.000000,4.000000,4.000000,100.000000,,,,,,,,42.000000,0.000000,0.232153,0.615479,0.229004,-0.717529,0.994644,0.057618,-0.138186,-12.180671,7.272285,58.339035
1618378643.126127,85.000000,0.000000,4243.077148,4244.615234,4163.589844,4148.205078,4235.384766,450.000000,3.000000,55.000000,,,,0.000000,4.000000,4.000000,4.000000,4.000000,4.000000,100.000000,,,,,,,,,,,,,,,,,,,
1618378643.133945,86.000000,0.000000,4247.692383,4241.538574,4165.641113,4143.589844,4242.051270,450.000000,3.000000,55.000000,,,,0.000000,4.000000,4.000000,4.000000,4.000000,4.000000,100.000000,,,,,,,,43.000000,0.000000,0.232666,0.615479,0.229248,-0.717285,0.993667,0.048829,-0.130373,-12.158911,5.946903,58.965191
1618378643.141762,87.000000,0.000000,4251.282227,4245.128418,4166.153809,4152.307617,4240.000000,16222.000000,3.000000,55.000000,,,,0.000000,4.000000,4.000000,4.000000,4.000000,4.000000,100.000000,,,,,,,,,,,,,,,,,,,
1618378643.149580,88.000000,0.000000,4251.282227,4253.333496,4169.230957,4149.743652,4238.461426,450.000000,3.000000,55.000000,,,,0.000000,4.000000,4.000000,4.000000,4.000000,4.000000,100.000000,,,,,,,,44.000000,0.000000,0.232666,0.615479,0.229248,-0.717285,1.003922,0.045899,-0.140627,-12.139327,8.522428,57.614639
1618378643.157398,89.000000,0.000000,4245.128418,4262.051270,4165.128418,4148.205078,4240.000000,450.000000,3.000000,55.000000,,,,0.000000,4.000000,4.000000,4.000000,4.000000,4.000000,100.000000,,,,,,,,,,,,,,,,,,,
1618378643.165316,90.000000,0.000000,4235.897461,4258.461426,4157.436035,4160.000000,4234.871582,450.000000,3.000000,55.000000,,,,0.000000,4.000000,4.000000,4.000000,4.000000,4.000000,100.000000,,,,,,,,45.000000,0.000000,0.232425,0.615479,0.229492,-0.717285,0.994156,0.058106,-0.140139,-12.181517,7.191661,56.339329
1618378643.173134,91.000000,0.000000,4245.641113,4255.897461,4161.538574,4167.179688,4235.384766,16222.000000,3.000000,55.000000,,,,0.000000,4.000000,4.000000,4.000000,4.000000,4.000000,100.000000,,,,,,,,,,,,,,,,,,,
1618378643.180952,92.000000,0.000000,4262.563965,4265.641113,4163.589844,4161.538574,4242.563965,450.000000,3.000000,55.000000,,,,0.000000,4.000000,4.000000,4.000000,4.000000,4.000000,100.000000,,,,,,,,46.000000,0.000000,0.232425,0.615479,0.229492,-0.717285,0.997086,0.051759,-0.130373,-12.040042,9.881971,57.105640
1618378643.188770,93.000000,0.000000,4256.410156,4262.563965,4155.897461,4145.128418,4239.487305,450.000000,3.000000,55.000000,,,,0.000000,4.000000,4.000000,4.000000,4.000000,4.000000,100.000000,,,,,,,,,,,,,,,,,,,
1618378643.196588,94.000000,0.000000,4236.922852,4246.153809,4153.846191,4122.563965,4225.641113,450.000000,3.000000,55.000000,,,,0.000000,4.000000,4.000000,4.000000,4.000000,4.000000,100.000000,,,,,,,,47.000000,0.000000,0.232425,0.615479,0.229492,-0.717285,0.994156,0.044434,-0.137209,-11.972529,8.415251,57.974766
1618378643.204406,95.000000,0.000000,4228.205078,4236.922852,4150.256348,4129.230957,4213.846191,16222.000000,3.000000,55.000000,,,,0.000000,4.000000,4.000000,4.000000,4.000000,4.000000,100.000000,,,,,,,,,,,,,,,,,,,
1618378643.212224,96.000000,0.000000,4234.358887,4239.487305,4138.974121,4144.615234,4210.769043,450.000000,3.000000,55.000000,,,,0.000000,4.000000,4.000000,4.000000,4.000000,4.000000,100.000000,,,,,,,,48.000000,0.000000,0.232425,0.615479,0.229492,-0.717285,0.994156,0.058106,-0.140139,-12.031400,7.095203,56.663441
1618378643.220141,97.000000,0.000000,4249.743652,4249.743652,4136.410156,4123.077148,4217.436035,450.000000,3.000000,55.000000,,,,0.000000,4.000000,4.000000,4.000000,4.000000,4.000000,100.000000,,,,,,,,,,,,,,,,,,,
1618378643.227959,98.000000,0.000000,4262.563965,4253.333496,4149.743652,4121.538574,4223.589844,450.000000,3.000000,55.000000,,,,0.000000,4.000000,4.000000,4.000000,4.000000,4.000000,100.000000,,,,,,,,49.000000,0.000000,0.233177,0.615479,0.229492,-0.717041,0.994644,0.049317,-0.138186,-12.084382,5.907160,55.483250
1618378643.235777,99.000000,0.000000,4260.512695,4245.641113,4156.922852,4149.230957,4223.589844,16222.000000,3.000000,55.000000,,,,0.000000,4.000000,4.000000,4.000000,4.000000,4.000000,100.000000,,,,,,,,,,,,,,,,,,,
1618378643.243595,100.000000,0.000000,4251.794922,4245.641113,4156.410156,4145.641113,4221.538574,450.000000,3.000000,55.000000,,,,0.000000,4.000000,4.000000,4.000000,4.000000,4.000000,100.000000,,,,,,,,50.000000,0.000000,0.233177,0.615479,0.229492,-0.717041,0.995132,0.051759,-0.139651,-12.072251,4.837921,56.394985
1618378643.251413,101.000000,0.000000,4246.153809,4251.794922,4161.538574,4137.948730,4216.922852,450.000000,3.000000,55.000000,,,,0.000000,4.000000,4.000000,4.000000,4.000000,4.000000,100.000000,,,,,,,,,,,,,,,,,,,
