title:S13, start timestamp:1618378879.568789, stop timestamp:1618378990.609392, headset type:INSIGHT, headset serial:A2D202F3, headset firmware:932, channels:40, sampling rate:eeg_128;mot_64, samples:14216     , version:2.1, 
Timestamp,EEG.Counter,EEG.Interpolated,EEG.AF3,EEG.T7,EEG.Pz,EEG.T8,EEG.AF4,EEG.RawCq,EEG.Battery,EEG.BatteryPercent,MarkerIndex,MarkerType,MarkerValueInt,EEG.MarkerHardware,CQ.AF3,CQ.T7,CQ.Pz,CQ.T8,CQ.AF4,CQ.Overall,EQ.SampleRateQuality,EQ.OVERALL,EQ.AF3,EQ.T7,EQ.Pz,EQ.T8,EQ.AF4,MOT.CounterMems,MOT.InterpolatedMems,MOT.Q0,MOT.Q1,MOT.Q2,MOT.Q3,MOT.AccX,MOT.AccY,MOT.AccZ,MOT.MagX,MOT.MagY,MOT.MagZ
1618378879.568789,0.000000,0.000000,4233.846191,4205.128418,4157.948730,4144.102539,4207.179688,450.000000,3.000000,55.000000,,,,0.000000,4.000000,4.000000,4.000000,4.000000,4.000000,100.000000,,,,,,,,0.000000,0.000000,0.287228,0.586914,0.285889,-0.700928,1.000015,0.060060,-0.157717,-11.880920,15.987744,57.999516
1618378879.576510,1.000000,0.000000,4238.461426,4216.410156,4163.589844,4139.487305,4212.307617,450.000000,3.000000,55.000000,,,,0.000000,4.000000,4.000000,4.000000,4.000000,4.000000,100.000000,,,,,,,,,,,,,,,,,,,
1618378879.584330,2.000000,0.000000,4246.666504,4229.743652,4170.256348,4143.077148,4221.538574,16224.000000,3.000000,55.000000,,,,0.000000,4.000000,4.000000,4.000000,4.000000,4.000000,100.000000,,,,,,,,1.000000,0.000000,0.287823,0.586914,0.285889,-0.700684,0.987320,0.060060,-0.143557,-12.008766,17.499369,58.539993
1618378879.592150,3.000000,0.000000,4246.153809,4229.743652,4166.666504,4145.641113,4225.641113,450.000000,3.000000,55.000000,,,,0.000000,4.000000,4.000000,4.000000,4.000000,4.000000,100.000000,,,,,,,,,,,,,,,,,,,
1618378879.599970,4.000000,0.000000,4244.615234,4223.589844,4155.897461,4142.563965,4227.692383,16217.000000,3.000000,55.000000,,,,0.000000,4.000000,4.000000,4.000000,4.000000,4.000000,100.000000,,,,,,,,2.000000,0.000000,0.288065,0.586914,0.285645,-0.700684,0.989761,0.061524,-0.156252,-12.064013,15.151278,59.086239
1618378879.607790,5.000000,0.000000,4247.179688,4207.692383,4157.948730,4137.436035,4229.230957,450.000000,3.000000,55.000000,,,,0.000000,4.000000,4.000000,4.000000,4.000000,4.000000,100.000000,,,,,,,,,,,,,,,,,,,
1618378879.615610,6.000000,0.000000,4245.641113,4197.948730,4161.025879,4135.897461,4223.077148,16191.000000,3.000000,55.000000,,,,0.000000,4.000000,4.000000,4.000000,4.000000,4.000000,100.000000,,,,,,,,3.000000,0.000000,0.287471,0.586914,0.285645,-0.700928,0.983413,0.060548,-0.153323,-11.994102,16.925995,57.663765
1618378879.623430,7.000000,0.000000,4238.461426,4207.692383,4153.333496,4138.974121,4214.358887,450.000000,3.000000,55.000000,,,,0.000000,4.000000,4.000000,4.000000,4.000000,4.000000,100.000000,,,,,,,,,,,,,,,,,,,
1618378879.631250,8.000000,0.000000,4229.743652,4220.512695,4149.743652,4130.769043,4208.205078,450.000000,3.000000,55.000000,,,,0.000000,4.000000,4.000000,4.000000,4.000000,4.000000,100.000000,,,,,,,,4.000000,0.000000,0.288065,0.586914,0.285645,-0.700684,0.990738,0.062013,-0.144045,-12.110631,14.515612,58.297634
1618378879.638971,9.000000,0.000000,4226.153809,4215.384766,4152.820313,4124.615234,4202.051270,16219.000000,3.000000,55.000000,,,,0.000000,4.000000,4.000000,4.000000,4.000000,4.000000,100.000000,,,,,,,,,,,,,,,,,,,
1618378879.646792,10.000000,0.000000,4225.128418,4204.102539,4151.794922,4135.897461,4202.563965,450.000000,3.000000,55.000000,,,,0.000000,4.000000,4.000000,4.000000,4.000000,4.000000,100.000000,,,,,,,,5.000000,0.000000,0.287567,0.587158,0.285645,-0.700684,0.989761,0.063478,-0.146487,-12.036059,12.406081,58.868114
1618378879.654612,11.000000,0.000000,4224.615234,4207.179688,4151.282227,4145.641113,4202.051270,16228.000000,3.000000,55.000000,,,,0.000000,4.000000,4.000000,4.000000,4.000000,4.000000,100.000000,,,,,,,,,,,,,,,,,,,
1618378879.662433,12.000000,0.000000,4226.153809,4223.077148,4153.333496,4140.000000,4202.051270,450.000000,3.000000,55.000000,,,,0.000000,4.000000,4.000000,4.000000,4.000000,4.000000,100.000000,,,,,,,,6.000000,0.000000,0.287567,0.587158,0.285645,-0.700684,0.986343,0.062989,-0.148440,-11.968946,10.567320,59.381546
1618378879.670254,13.000000,0.000000,4233.846191,4227.179688,4154.871582,4134.871582,4215.384766,450.000000,3.000000,55.000000,,,,0.000000,4.000000,4.000000,4.000000,4.000000,4.000000,100.000000,,,,,,,,,,,,,,,,,,,
1618378879.678074,14.000000,0.000000,4248.717773,4210.769043,4167.179688,4143.589844,4228.717773,450.000000,3.000000,55.000000,,,,0.000000,4.000000,4.000000,4.000000,4.000000,4.000000,100.000000,,,,,,,,7.000000,0.000000,0.288403,0.587158,0.285400,-0.700439,1.000992,0.047852,-0.153811,-12.028173,8.912435,59.843636
1618378879.685895,15.000000,0.000000,4260.000000,4209.743652,4184.102539,4156.410156,4232.307617,16228.000000,3.000000,55.000000,,,,0.000000,4.000000,4.000000,4.000000,4.000000,4.000000,100.000000,,,,,,,,,,,,,,,,,,,
1618378879.693715,16.000000,0.000000,4253.846191,4224.102539,4176.410156,4156.922852,4229.230957,0.000000,3.000000,55.000000,,,,0.000000,4.000000,4.000000,4.000000,4.000000,4.000000,100.000000,,,,,,,,8.000000,0.000000,0.287906,0.587402,0.285400,-0.700439,0.993667,0.051270,-0.142580,-11.961848,7.423037,60.319332
1618378879.701435,17.000000,0.000000,4224.615234,4210.256348,4145.128418,4129.743652,4205.641113,0.000000,3.000000,55.000000,,,,0.000000,4.000000,4.000000,4.000000,4.000000,4.000000,100.000000,,,,,,,,,,,,,,,,,,,
1618378879.709254,18.000000,0.000000,4193.333496,4185.641113,4120.512695,4094.358887,4165.128418,0.000000,3.000000,55.000000,,,,0.000000,4.000000,4.000000,4.000000,4.000000,4.000000,100.000000,,,,,,,,9.000000,0.000000,0.288147,0.587402,0.285156,-0.700439,0.991226,0.044923,-0.149416,-12.081601,9.850947,58.773552
1618378879.717074,19.000000,0.000000,4189.230957,4191.282227,4125.128418,4092.307617,4153.846191,0.000000,3.000000,55.000000,,,,0.000000,4.000000,4.000000,4.000000,4.000000,4.000000,100.000000,,,,,,,,,,,,,,,,,,,
1618378879.724893,20.000000,0.000000,4205.128418,4204.615234,4144.102539,4115.384766,4179.487305,0.000000,3.000000,55.000000,,,,0.000000,4.000000,4.000000,4.000000,4.000000,4.000000,100.000000,,,,,,,,10.000000,0.000000,0.288147,0.587402,0.285156,-0.700439,1.000015,0.054688,-0.144045,-12.069749,8.267699,59.236626
1618378879.732713,21.000000,0.000000,4215.384766,4209.230957,4153.846191,4132.307617,4198.461426,0.000000,3.000000,55.000000,,,,0.000000,4.000000,4.000000,4.000000,4.000000,4.000000,100.000000,,,,,,,,,,,,,,,,,,,
1618378879.740532,22.000000,0.000000,4221.025879,4216.410156,4156.410156,4128.717773,4197.948730,0.000000,3.000000,55.000000,,,,0.000000,4.000000,4.000000,4.000000,4.000000,4.000000,100.000000,,,,,,,,11.000000,0.000000,0.287649,0.587646,0.285156,-0.700439,0.997086,0.056153,-0.145998,-11.999266,6.782960,59.773022
1618378879.748351,23.000000,0.000000,4230.769043,4217.436035,4165.128418,4119.487305,4198.974121,0.000000,3.000000,55.000000,,,,0.000000,4.000000,4.000000,4.000000,4.000000,4.000000,100.000000,,,,,,,,,,,,,,,,,,,
1618378879.756072,24.000000,0.000000,4235.897461,4221.025879,4174.358887,4131.794922,4205.641113,0.000000,3.000000,55.000000,,,,0.000000,4.000000,4.000000,4.000000,4.000000,4.000000,100.000000,,,,,,,,12.000000,0.000000,0.287649,0.587646,0.285156,-0.700439,0.997086,0.055665,-0.142092,-12.055462,5.386880,60.016518
1618378879.763892,25.000000,0.000000,4236.410156,4228.205078,4172.307617,4155.897461,4209.230957,0.000000,3.000000,55.000000,,,,0.000000,4.000000,4.000000,4.000000,4.000000,4.000000,100.000000,,,,,,,,,,,,,,,,,,,
1618378879.771712,26.000000,0.000000,4227.179688,4210.256348,4160.000000,4151.282227,4201.538574,0.000000,3.000000,55.000000,,,,0.000000,4.000000,4.000000,4.000000,4.000000,4.000000,100.000000,,,,,,,,13.000000,0.000000,0.288147,0.587402,0.285156,-0.700439,0.979507,0.055665,-0.145998,-11.986407,4.369669,60.534740
1618378879.779532,27.000000,0.000000,4209.743652,4195.897461,4146.666504,4126.153809,4191.282227,0.000000,3.000000,55.000000,,,,0.000000,4.000000,4.000000,4.000000,4.000000,4.000000,100.000000,,,,,,,,,,,,,,,,,,,
1618378879.787352,28.000000,0.000000,4213.846191,4215.384766,4144.615234,4129.230957,4201.025879,0.000000,3.000000,55.000000,,,,0.000000,4.000000,4.000000,4.000000,4.000000,4.000000,100.000000,,,,,,,,14.000000,0.000000,0.287553,0.587402,0.285156,-0.700684,0.977554,0.068849,-0.150393,-11.984075,3.214918,60.881512
1618378879.795172,29.000000,0.000000,4234.871582,4219.487305,4153.846191,4144.102539,4220.512695,0.000000,3.000000,55.000000,,,,0.000000,4.000000,4.000000,4.000000,4.000000,4.000000,100.000000,,,,,,,,,,,,,,,,,,,
1618378879.802992,30.000000,0.000000,4237.948730,4204.615234,4160.512695,4137.948730,4218.461426,0.000000,3.000000,55.000000,,,,0.000000,4.000000,4.000000,4.000000,4.000000,4.000000,100.000000,,,,,,,,15.000000,0.000000,0.287215,0.587158,0.285400,-0.700928,1.006363,0.065919,-0.145510,-12.041789,2.235457,61.133789
1618378879.810813,31.000000,0.000000,4235.384766,4210.769043,4165.128418,4136.922852,4214.358887,0.000000,3.000000,55.000000,,,,0.000000,4.000000,4.000000,4.000000,4.000000,4.000000,100.000000,,,,,,,,,,,,,,,,,,,
1618378879.818534,32.000000,0.000000,4243.589844,4228.205078,4170.256348,4149.743652,4226.153809,0.000000,3.000000,55.000000,,,,0.000000,4.000000,4.000000,4.000000,4.000000,4.000000,100.000000,,,,,,,,16.000000,0.000000,0.286972,0.587158,0.285645,-0.700928,0.999039,0.051270,-0.145022,-11.974102,1.533388,61.540283
1618378879.826355,33.000000,0.000000,4237.948730,4226.153809,4171.794922,4147.179688,4222.051270,0.000000,3.000000,55.000000,,,,0.000000,4.000000,4.000000,4.000000,4.000000,4.000000,100.000000,,,,,,,,,,,,,,,,,,,
1618378879.834176,34.000000,0.000000,4218.974121,4196.410156,4165.128418,4128.205078,4201.538574,0.000000,3.000000,55.000000,,,,0.000000,4.000000,4.000000,4.000000,4.000000,4.000000,100.000000,,,,,,,,17.000000,0.000000,0.286972,0.587158,0.285645,-0.700928,1.002457,0.069337,-0.154299,-11.853369,0.901527,61.786499
1618378879.841997,35.000000,0.000000,4212.307617,4186.153809,4152.307617,4123.077148,4193.846191,0.000000,3.000000,55.000000,,,,0.000000,4.000000,4.000000,4.000000,4.000000,4.000000,100.000000,,,,,,,,,,,,,,,,,,,
1618378879.849818,36.000000,0.000000,4216.410156,4215.897461,4149.230957,4128.717773,4193.846191,0.000000,3.000000,55.000000,,,,0.000000,4.000000,4.000000,4.000000,4.000000,4.000000,100.000000,,,,,,,,18.000000,0.000000,0.287567,0.587158,0.285645,-0.700684,1.000015,0.061524,-0.155276,-11.864339,3.981588,60.153820
1618378879.857639,37.000000,0.000000,4219.487305,4229.743652,4157.948730,4127.692383,4193.846191,0.000000,3.000000,55.000000,,,,0.000000,4.000000,4.000000,4.000000,4.000000,4.000000,100.000000,,,,,,,,,,,,,,,,,,,
1618378879.865460,38.000000,0.000000,4220.512695,4214.358887,4162.051270,4124.102539,4201.538574,0.000000,3.000000,55.000000,,,,0.000000,4.000000,4.000000,4.000000,4.000000,4.000000,100.000000,,,,,,,,19.000000,0.000000,0.287567,0.587158,0.285645,-0.700684,0.990738,0.061524,-0.145998,-11.754581,3.045091,58.624588
1618378879.873281,39.000000,0.000000,4221.025879,4210.256348,4159.487305,4122.051270,4209.230957,0.000000,3.000000,55.000000,,,,0.000000,4.000000,4.000000,4.000000,4.000000,4.000000,100.000000,,,,,,,,,,,,,,,,,,,
1618378879.881102,40.000000,0.000000,4221.025879,4216.922852,4160.000000,4120.000000,4206.153809,0.000000,3.000000,55.000000,,,,0.000000,4.000000,4.000000,4.000000,4.000000,4.000000,100.000000,,,,,,,,20.000000,0.000000,0.287567,0.587158,0.285645,-0.700684,0.979019,0.060060,-0.159670,-11.835246,2.082613,57.308098
1618378879.888824,41.000000,0.000000,4222.051270,4224.615234,4158.461426,4123.077148,4200.000000,0.000000,3.000000,55.000000,,,,0.000000,4.000000,4.000000,4.000000,4.000000,4.000000,100.000000,,,,,,,,,,,,,,,,,,,
1618378879.896645,42.000000,0.000000,4216.922852,4220.512695,4150.769043,4128.717773,4199.487305,0.000000,3.000000,55.000000,,,,0.000000,4.000000,4.000000,4.000000,4.000000,4.000000,100.000000,,,,,,,,21.000000,0.000000,0.287567,0.587158,0.285645,-0.700684,0.987320,0.056641,-0.137697,-11.907845,1.395829,57.917717
1618378879.904466,43.000000,0.000000,4218.461426,4200.000000,4146.153809,4129.743652,4203.589844,0.000000,3.000000,55.000000,,,,0.000000,4.000000,4.000000,4.000000,4.000000,4.000000,100.000000,,,,,,,,,,,,,,,,,,,
1618378879.912288,44.000000,0.000000,4224.102539,4208.205078,4146.666504,4129.230957,4203.589844,0.000000,3.000000,55.000000,,,,0.000000,4.000000,4.000000,4.000000,4.000000,4.000000,100.000000,,,,,,,,22.000000,0.000000,0.287567,0.587158,0.285645,-0.700684,0.990738,0.061524,-0.145998,-12.032998,4.306829,56.612099
1618378879.920109,45.000000,0.000000,4217.436035,4235.384766,4148.205078,4129.743652,4195.897461,0.000000,3.000000,55.000000,,,,0.000000,4.000000,4.000000,4.000000,4.000000,4.000000,100.000000,,,,,,,,,,,,,,,,,,,
1618378879.927930,46.000000,0.000000,4213.846191,4230.769043,4148.205078,4129.230957,4193.846191,0.000000,3.000000,55.000000,,,,0.000000,4.000000,4.000000,4.000000,4.000000,4.000000,100.000000,,,,,,,,23.000000,0.000000,0.287567,0.587158,0.285645,-0.700684,0.987320,0.056641,-0.137697,-12.085821,3.397624,57.291317
1618378879.935752,47.000000,0.000000,4223.077148,4212.820313,4144.615234,4131.794922,4201.538574,0.000000,3.000000,55.000000,,,,0.000000,4.000000,4.000000,4.000000,4.000000,4.000000,100.000000,,,,,,,,,,,,,,,,,,,
1618378879.943573,48.000000,0.000000,4226.666504,4211.794922,4141.538574,4125.641113,4203.589844,0.000000,3.000000,55.000000,,,,0.000000,4.000000,4.000000,4.000000,4.000000,4.000000,100.000000,,,,,,,,24.000000,0.000000,0.287325,0.587158,0.285889,-0.700684,0.989761,0.053712,-0.140627,-12.133362,2.399892,57.902615
1618378879.951394,49.000000,0.000000,4228.717773,4214.871582,4144.102539,4117.948730,4204.102539,0.000000,3.000000,55.000000,,,,0.000000,4.000000,4.000000,4.000000,4.000000,4.000000,100.000000,,,,,,,,,,,,,,,,,,,
1618378879.959216,50.000000,0.000000,4234.358887,4215.897461,4145.641113,4133.333496,4214.871582,0.000000,3.000000,55.000000,,,,0.000000,4.000000,4.000000,4.000000,4.000000,4.000000,100.000000,,,,,,,,25.000000,0.000000,0.287325,0.587158,0.285889,-0.700684,1.003922,0.067384,-0.145998,-12.176148,5.330117,58.572411
1618378879.966937,51.000000,0.000000,4232.307617,4213.333496,4138.974121,4148.717773,4217.948730,0.000000,3.000000,55.000000,,,,0.000000,4.000000,4.000000,4.000000,4.000000,4.000000,100.000000,,,,,,,,,,,,,,,,,,,
1618378879.974758,52.000000,0.000000,4230.256348,4201.025879,4137.436035,4145.641113,4206.666504,0.000000,3.000000,55.000000,,,,0.000000,4.000000,4.000000,4.000000,4.000000,4.000000,100.000000,,,,,,,,26.000000,0.000000,0.287325,0.587158,0.285889,-0.700684,1.006363,0.060060,-0.145022,-12.154840,4.079321,59.055599
1618378879.982579,53.000000,0.000000,4239.487305,4201.025879,4148.717773,4150.256348,4208.205078,0.000000,3.000000,55.000000,,,,0.000000,4.000000,4.000000,4.000000,4.000000,4.000000,100.000000,,,,,,,,,,,,,,,,,,,
1618378879.990400,54.000000,0.000000,4250.256348,4222.051270,4160.512695,4162.051270,4226.153809,0.000000,3.000000,55.000000,,,,0.000000,4.000000,4.000000,4.000000,4.000000,4.000000,100.000000,,,,,,,,27.000000,0.000000,0.287325,0.587158,0.285889,-0.700684,0.997086,0.060548,-0.148928,-12.195479,6.901419,59.669914
1618378879.998221,55.000000,0.000000,4258.974121,4227.692383,4163.077148,4161.538574,4238.461426,0.000000,3.000000,55.000000,,,,0.000000,4.000000,4.000000,4.000000,4.000000,4.000000,100.000000,,,,,,,,,,,,,,,,,,,
1618378880.006042,56.000000,0.000000,4255.897461,4205.641113,4161.025879,4158.974121,4234.358887,0.000000,3.000000,55.000000,,,,0.000000,4.000000,4.000000,4.000000,4.000000,4.000000,100.000000,,,,,,,,28.000000,0.000000,0.287325,0.587158,0.285889,-0.700684,0.991226,0.055665,-0.140627,-12.172238,5.493493,59.923721
1618378880.013863,57.000000,0.000000,4249.743652,4204.615234,4162.051270,4159.487305,4230.256348,0.000000,3.000000,55.000000,,,,0.000000,4.000000,4.000000,4.000000,4.000000,4.000000,100.000000,,,,,,,,,,,,,,,,,,,
1618378880.021684,58.000000,0.000000,4257.948730,4228.717773,4166.153809,4156.922852,4240.000000,0.000000,3.000000,55.000000,,,,0.000000,4.000000,4.000000,4.000000,4.000000,4.000000,100.000000,,,,,,,,29.000000,0.000000,0.287068,0.587402,0.285645,-0.700684,0.994156,0.061524,-0.153811,-12.211138,8.174173,58.357685
1618378880.029506,59.000000,0.000000,4262.051270,4234.358887,4163.589844,4160.000000,4246.153809,0.000000,3.000000,55.000000,,,,0.000000,4.000000,4.000000,4.000000,4.000000,4.000000,100.000000,,,,,,,,,,,,,,,,,,,
1618378880.037327,60.000000,0.000000,4249.743652,4230.256348,4151.794922,4154.871582,4230.769043,0.000000,3.000000,55.000000,,,,0.000000,4.000000,4.000000,4.000000,4.000000,4.000000,100.000000,,,,,,,,30.000000,0.000000,0.287068,0.587402,0.285645,-0.700684,0.992203,0.071290,-0.151858,-12.246146,6.758602,57.067886
1618378880.045047,61.000000,0.000000,4242.563965,4224.615234,4143.077148,4145.128418,4213.333496,0.000000,3.000000,55.000000,,,,0.000000,4.000000,4.000000,4.000000,4.000000,4.000000,100.000000,,,,,,,,,,,,,,,,,,,
1618378880.052868,62.000000,0.000000,4245.641113,4213.846191,4148.717773,4151.282227,4217.436035,0.000000,3.000000,55.000000,,,,0.000000,4.000000,4.000000,4.000000,4.000000,4.000000,100.000000,,,,,,,,31.000000,0.000000,0.287068,0.587402,0.285645,-0.700684,1.005875,0.062989,-0.149905,-12.337470,5.484588,57.880970
1618378880.060689,63.000000,0.000000,4246.666504,4227.179688,4161.538574,4161.025879,4229.230957,0.000000,3.000000,55.000000,,,,0.000000,4.000000,4.000000,4.000000,4.000000,4.000000,100.000000,0.972656,100.000000,4.000000,4.000000,4.000000,4.000000,4.000000,,,,,,,,,,,,
1618378880.068509,64.000000,0.000000,4243.589844,4251.282227,4163.077148,4166.153809,4225.641113,450.000000,3.000000,55.000000,,,,0.000000,4.000000,4.000000,4.000000,4.000000,4.000000,100.000000,,,,,,,,32.000000,0.000000,0.287068,0.587402,0.285645,-0.700684,0.994644,0.063478,-0.165530,-12.359845,8.285789,56.459396
1618378880.076330,65.000000,0.000000,4236.410156,4240.512695,4157.436035,4162.563965,4217.948730,450.000000,3.000000,55.000000,,,,0.000000,4.000000,4.000000,4.000000,4.000000,4.000000,100.000000,,,,,,,,,,,,,,,,,,,
1618378880.084150,66.000000,0.000000,4232.820313,4225.128418,4160.512695,4147.179688,4219.487305,16232.000000,3.000000,55.000000,,,,0.000000,4.000000,4.000000,4.000000,4.000000,4.000000,100.000000,,,,,,,,33.000000,0.000000,0.287311,0.587402,0.285400,-0.700684,0.985855,0.047852,-0.154299,-12.260353,6.918873,57.273518
1618378880.091971,67.000000,0.000000,4232.820313,4231.282227,4159.487305,4141.025879,4215.384766,450.000000,3.000000,55.000000,,,,0.000000,4.000000,4.000000,4.000000,4.000000,4.000000,100.000000,,,,,,,,,,,,,,,,,,,
1618378880.099792,68.000000,0.000000,4226.153809,4226.153809,4143.589844,4150.769043,4203.589844,16219.000000,3.000000,55.000000,,,,0.000000,4.000000,4.000000,4.000000,4.000000,4.000000,100.000000,,,,,,,,34.000000,0.000000,0.287311,0.587402,0.285400,-0.700684,0.993179,0.057618,-0.156252,-12.350256,5.628832,58.066040
1618378880.107512,69.000000,0.000000,4221.025879,4221.538574,4134.358887,4154.358887,4198.974121,450.000000,3.000000,55.000000,,,,0.000000,4.000000,4.000000,4.000000,4.000000,4.000000,100.000000,,,,,,,,,,,,,,,,,,,
1618378880.115332,70.000000,0.000000,4220.512695,4219.487305,4140.512695,4144.102539,4196.922852,16199.000000,3.000000,55.000000,,,,0.000000,4.000000,4.000000,4.000000,4.000000,4.000000,100.000000,,,,,,,,35.000000,0.000000,0.287311,0.587402,0.285400,-0.700684,0.992691,0.066896,-0.146487,-12.251722,8.355794,58.599865
1618378880.123152,71.000000,0.000000,4223.077148,4206.666504,4146.153809,4142.563965,4194.358887,450.000000,3.000000,55.000000,,,,0.000000,4.000000,4.000000,4.000000,4.000000,4.000000,100.000000,,,,,,,,,,,,,,,,,,,
1618378880.130972,72.000000,0.000000,4232.820313,4214.871582,4150.769043,4150.769043,4204.102539,450.000000,3.000000,55.000000,,,,0.000000,4.000000,4.000000,4.000000,4.000000,4.000000,100.000000,,,,,,,,36.000000,0.000000,0.287311,0.587402,0.285400,-0.700684,0.983413,0.048341,-0.146487,-12.282673,6.981876,59.080307
1618378880.138792,73.000000,0.000000,4228.717773,4238.974121,4152.307617,4148.205078,4205.128418,16225.000000,3.000000,55.000000,,,,0.000000,4.000000,4.000000,4.000000,4.000000,4.000000,100.000000,,,,,,,,,,,,,,,,,,,
1618378880.146612,74.000000,0.000000,4212.820313,4237.436035,4152.307617,4144.102539,4195.384766,450.000000,3.000000,55.000000,,,,0.000000,4.000000,4.000000,4.000000,4.000000,4.000000,100.000000,,,,,,,,37.000000,0.000000,0.286715,0.587402,0.285400,-0.700928,1.000504,0.058106,-0.147951,-12.131082,9.453903,57.658428
1618378880.154433,75.000000,0.000000,4216.410156,4220.512695,4157.436035,4150.769043,4199.487305,16226.000000,3.000000,55.000000,,,,0.000000,4.000000,4.000000,4.000000,4.000000,4.000000,100.000000,,,,,,,,,,,,,,,,,,,
1618378880.162253,76.000000,0.000000,4233.333496,4214.871582,4158.461426,4153.846191,4214.358887,450.000000,3.000000,55.000000,,,,0.000000,4.000000,4.000000,4.000000,4.000000,4.000000,100.000000,,,,,,,,38.000000,0.000000,0.286715,0.587402,0.285400,-0.700928,1.002945,0.058595,-0.140139,-12.233912,11.798358,56.259106
1618378880.169969,77.000000,0.000000,4237.948730,4215.384766,4151.282227,4146.153809,4222.051270,450.000000,3.000000,55.000000,,,,0.000000,4.000000,4.000000,4.000000,4.000000,4.000000,100.000000,,,,,,,,,,,,,,,,,,,
1618378880.177686,78.000000,0.000000,4232.307617,4219.487305,4151.282227,4149.743652,4215.384766,450.000000,3.000000,55.000000,,,,0.000000,4.000000,4.000000,4.000000,4.000000,4.000000,100.000000,,,,,,,,39.000000,0.000000,0.286618,0.587158,0.285400,-0.701172,0.995621,0.064454,-0.155764,-12.266644,13.848552,56.973625
1618378880.185503,79.000000,0.000000,4228.205078,4218.461426,4160.000000,4150.256348,4207.179688,16226.000000,3.000000,55.000000,,,,0.000000,4.000000,4.000000,4.000000,4.000000,4.000000,100.000000,,,,,,,,,,,,,,,,,,,
1618378880.193320,80.000000,0.000000,4228.205078,4210.256348,4157.948730,4131.282227,4212.820313,450.000000,3.000000,55.000000,,,,0.000000,4.000000,4.000000,4.000000,4.000000,4.000000,100.000000,,,,,,,,40.000000,0.000000,0.286618,0.587158,0.285400,-0.701172,0.996109,0.054688,-0.139651,-12.296102,11.805727,57.556877
1618378880.201137,81.000000,0.000000,4229.230957,4209.230957,4147.692383,4132.307617,4219.487305,450.000000,3.000000,55.000000,,,,0.000000,4.000000,4.000000,4.000000,4.000000,4.000000,100.000000,,,,,,,,,,,,,,,,,,,
1618378880.208858,82.000000,0.000000,4222.563965,4217.948730,4148.717773,4151.794922,4211.794922,450.000000,3.000000,55.000000,,,,0.000000,4.000000,4.000000,4.000000,4.000000,4.000000,100.000000,,,,,,,,41.000000,0.000000,0.286618,0.587158,0.285400,-0.701172,0.989273,0.063478,-0.151369,-12.382429,13.915000,56.287342
1618378880.216678,83.000000,0.000000,4225.641113,4234.358887,4159.487305,4152.820313,4205.641113,16226.000000,3.000000,55.000000,,,,0.000000,4.000000,4.000000,4.000000,4.000000,4.000000,100.000000,,,,,,,,,,,,,,,,,,,
1618378880.224498,84.000000,0.000000,4237.436035,4236.922852,4158.461426,4145.128418,4207.179688,450.000000,3.000000,55.000000,,,,0.000000,4.000000,4.000000,4.000000,4.000000,4.000000,100.000000,,,,,,,,42.000000,0.000000,0.286521,0.586914,0.285400,-0.701416,0.997574,0.064454,-0.165042,-12.220863,11.985162,57.058849
1618378880.232319,85.000000,0.000000,4235.897461,4223.589844,4153.846191,4147.692383,4208.717773,450.000000,3.000000,55.000000,,,,0.000000,4.000000,4.000000,4.000000,4.000000,4.000000,100.000000,,,,,,,,,,,,,,,,,,,
1618378880.240139,86.000000,0.000000,4232.307617,4227.692383,4158.974121,4147.692383,4215.897461,450.000000,3.000000,55.000000,,,,0.000000,4.000000,4.000000,4.000000,4.000000,4.000000,100.000000,,,,,,,,43.000000,0.000000,0.286277,0.586914,0.285645,-0.701416,0.992203,0.076661,-0.157717,-12.254899,13.897044,55.898933
1618378880.247959,87.000000,0.000000,4241.538574,4232.307617,4163.077148,4148.205078,4223.077148,16226.000000,3.000000,55.000000,,,,0.000000,4.000000,4.000000,4.000000,4.000000,4.000000,100.000000,,,,,,,,,,,,,,,,,,,
1618378880.255780,88.000000,0.000000,4247.179688,4222.051270,4168.205078,4159.487305,4225.128418,450.000000,3.000000,55.000000,,,,0.000000,4.000000,4.000000,4.000000,4.000000,4.000000,100.000000,,,,,,,,44.000000,0.000000,0.286277,0.586914,0.285645,-0.701416,1.011734,0.055665,-0.152834,-12.285532,15.557923,56.709286
1618378880.263600,89.000000,0.000000,4242.563965,4230.256348,4180.000000,4162.051270,4225.128418,450.000000,3.000000,55.000000,,,,0.000000,4.000000,4.000000,4.000000,4.000000,4.000000,100.000000,,,,,,,,,,,,,,,,,,,
1618378880.271322,90.000000,0.000000,4246.153809,4234.358887,4186.153809,4157.948730,4224.615234,450.000000,3.000000,55.000000,,,,0.000000,4.000000,4.000000,4.000000,4.000000,4.000000,100.000000,,,,,,,,45.000000,0.000000,0.285678,0.586914,0.285645,-0.701660,0.992203,0.065431,-0.151369,-12.313102,17.172346,55.464695
1618378880.279143,91.000000,0.000000,4258.974121,4224.102539,4182.563965,4166.153809,4228.205078,16226.000000,3.000000,55.000000,,,,0.000000,4.000000,4.000000,4.000000,4.000000,4.000000,100.000000,,,,,,,,,,,,,,,,,,,
1618378880.286964,92.000000,0.000000,4269.230957,4234.871582,4174.358887,4161.538574,4235.897461,450.000000,3.000000,55.000000,,,,0.000000,4.000000,4.000000,4.000000,4.000000,4.000000,100.000000,,,,,,,,46.000000,0.000000,0.285580,0.586670,0.285645,-0.701904,0.990250,0.077150,-0.154299,-12.278099,14.797142,56.258652
1618378880.294786,93.000000,0.000000,4294.871582,4244.615234,4168.717773,4146.666504,4253.846191,450.000000,3.000000,55.000000,,,,0.000000,4.000000,4.000000,4.000000,4.000000,4.000000,100.000000,,,,,,,,,,,,,,,,,,,
1618378880.302607,94.000000,0.000000,4344.102539,4237.948730,4172.820313,4162.051270,4285.641113,450.000000,3.000000,55.000000,,,,0.000000,4.000000,4.000000,4.000000,4.000000,4.000000,100.000000,,,,,,,,47.000000,0.000000,0.285580,0.586670,0.285645,-0.701904,0.991714,0.074220,-0.149905,-12.246596,12.659459,56.913403
1618378880.310428,95.000000,0.000000,4381.025879,4239.487305,4175.384766,4183.077148,4312.307617,16226.000000,3.000000,55.000000,,,,0.000000,4.000000,4.000000,4.000000,4.000000,4.000000,100.000000,,,,,,,,,,,,,,,,,,,
1618378880.318250,96.000000,0.000000,4394.358887,4232.307617,4166.153809,4173.333496,4323.077148,450.000000,3.000000,55.000000,,,,0.000000,4.000000,4.000000,4.000000,4.000000,4.000000,100.000000,,,,,,,,48.000000,0.000000,0.285678,0.586914,0.285645,-0.701660,0.992203,0.065431,-0.151369,-12.278059,14.563727,55.648399
1618378880.326071,97.000000,0.000000,4410.769043,4218.974121,4161.538574,4163.077148,4334.871582,450.000000,3.000000,55.000000,,,,0.000000,4.000000,4.000000,4.000000,4.000000,4.000000,100.000000,,,,,,,,,,,,,,,,,,,
1618378880.333892,98.000000,0.000000,4422.563965,4231.282227,4170.769043,4169.230957,4343.077148,450.000000,3.000000,55.000000,,,,0.000000,4.000000,4.000000,4.000000,4.000000,4.000000,100.000000,,,,,,,,49.000000,0.000000,0.285580,0.586670,0.285645,-0.701904,0.996109,0.066407,-0.150881,-12.126930,16.397200,56.543617
1618378880.341613,99.000000,0.000000,4416.922852,4243.077148,4180.512695,4171.282227,4340.512695,16226.000000,3.000000,55.000000,,,,0.000000,4.000000,4.000000,4.000000,4.000000,4.000000,100.000000,,,,,,,,,,,,,,,,,,,
1618378880.349434,100.000000,0.000000,4412.307617,4242.563965,4183.589844,4173.333496,4345.128418,450.000000,3.000000,55.000000,,,,0.000000,4.000000,4.000000,4.000000,4.000000,4.000000,100.000000,,,,,,,,50.000000,0.000000,0.284979,0.586670,0.285645,-0.702148,0.986831,0.064942,-0.159670,-12.110544,14.159327,57.169868
1618378880.357255,101.000000,0.000000,4404.102539,4257.436035,4186.153809,4184.102539,4351.794922,450.000000,3.000000,55.000000,,,,0.000000,4.000000,4.000000,4.000000,4.000000,4.000000,100.000000,,,,,,,,,,,,,,,,,,,
1618378880.365076,102.000000,0.000000,4382.563965,4261.538574,4191.282227,4181.538574,4343.589844,450.000000,3.000000,55.000000,,,,0.000000,4.000000,4.000000,4.000000,4.000000,4.000000,100.000000,,,,,,,,51.000000,0.000000,0.285224,0.586670,0.285400,-0.702148,1.001968,0.065431,-0.154299,-12.095798,12.145240,57.853127
1618378880.372896,103.000000,0.000000,4377.948730,4249.230957,4200.512695,4168.717773,4333.333496,16226.000000,3.000000,55.000000,,,,0.000000,4.000000,4.000000,4.000000,4.000000,4.000000,100.000000,,,,,,,,,,,,,,,,,,,
1618378880.380717,104.000000,0.000000,4376.410156,4255.384766,4202.563965,4173.846191,4323.589844,450.000000,3.000000,55.000000,,,,0.000000,4.000000,4.000000,4.000000,4.000000,4.000000,100.000000,,,,,,,,52.000000,0.000000,0.285468,0.586670,0.285156,-0.702148,0.996597,0.067384,-0.155276,-12.142340,10.212932,58.468060
1618378880.388538,105.000000,0.000000,4343.077148,4262.051270,4188.205078,4188.717773,4300.000000,450.000000,3.000000,55.000000,,,,0.000000,4.000000,4.000000,4.000000,4.000000,4.000000,100.000000,,,,,,,,,,,,,,,,,,,
1618378880.396359,106.000000,0.000000,4315.897461,4239.487305,4177.948730,4180.512695,4282.563965,450.000000,3.000000,55.000000,,,,0.000000,4.000000,4.000000,4.000000,4.000000,4.000000,100.000000,,,,,,,,53.000000,0.000000,0.284966,0.586914,0.285156,-0.702148,0.988785,0.062989,-0.142580,-12.184229,12.421668,58.722420
1618378880.404180,107.000000,0.000000,4308.205078,4221.025879,4175.384766,4154.358887,4276.922852,16226.000000,3.000000,55.000000,,,,0.000000,4.000000,4.000000,4.000000,4.000000,4.000000,100.000000,,,,,,,,,,,,,,,,,,,
1618378880.411901,108.000000,0.000000,4279.487305,4227.692383,4156.922852,4134.358887,4249.230957,450.000000,3.000000,55.000000,,,,0.000000,4.000000,4.000000,4.000000,4.000000,4.000000,100.000000,,,,,,,,54.000000,0.000000,0.285210,0.586914,0.284912,-0.702148,0.989761,0.064454,-0.153811,-12.281744,10.641163,59.250423
1618378880.419722,109.000000,0.000000,4255.897461,4229.230957,4146.153809,4134.871582,4227.692383,450.000000,3.000000,55.000000,,,,0.000000,4.000000,4.000000,4.000000,4.000000,4.000000,100.000000,,,,,,,,,,,,,,,,,,,
1618378880.427542,110.000000,0.000000,4271.794922,4227.692383,4167.692383,4155.897461,4250.256348,450.000000,3.000000,55.000000,,,,0.000000,4.000000,4.000000,4.000000,4.000000,4.000000,100.000000,,,,,,,,55.000000,0.000000,0.285194,0.587158,0.284424,-0.702148,0.997086,0.065431,-0.147951,-12.429323,12.747261,59.725624
1618378880.435363,111.000000,0.000000,4283.077148,4243.077148,4181.025879,4167.179688,4264.615234,16226.000000,3.000000,55.000000,,,,0.000000,4.000000,4.000000,4.000000,4.000000,4.000000,100.000000,,,,,,,,,,,,,,,,,,,
1618378880.443184,112.000000,0.000000,4271.794922,4261.025879,4175.384766,4165.641113,4246.153809,450.000000,3.000000,55.000000,,,,0.000000,4.000000,4.000000,4.000000,4.000000,4.000000,100.000000,,,,,,,,56.000000,0.000000,0.285194,0.587158,0.284424,-0.702148,0.985367,0.070314,-0.141604,-12.382698,10.874381,59.914043
1618378880.451005,113.000000,0.000000,4271.282227,4264.615234,4184.102539,4177.948730,4243.589844,450.000000,3.000000,55.000000,,,,0.000000,4.000000,4.000000,4.000000,4.000000,4.000000,100.000000,,,,,,,,,,,,,,,,,,,
1618378880.458826,114.000000,0.000000,4272.820313,4249.743652,4195.897461,4180.512695,4256.410156,450.000000,3.000000,55.000000,,,,0.000000,4.000000,4.000000,4.000000,4.000000,4.000000,100.000000,,,,,,,,57.000000,0.000000,0.285681,0.587158,0.283936,-0.702148,0.997086,0.060060,-0.150393,-12.460366,9.128974,60.263069
1618378880.466647,115.000000,0.000000,4265.641113,4250.769043,4194.871582,4168.717773,4255.897461,16226.000000,3.000000,55.000000,,,,0.000000,4.000000,4.000000,4.000000,4.000000,4.000000,100.000000,,,,,,,,,,,,,,,,,,,
1618378880.474468,116.000000,0.000000,4264.615234,4265.641113,4191.282227,4173.333496,4252.307617,450.000000,3.000000,55.000000,,,,0.000000,4.000000,4.000000,4.000000,4.000000,4.000000,100.000000,,,,,,,,58.000000,0.000000,0.285923,0.587158,0.283691,-0.702148,1.001480,0.050782,-0.154788,-12.410637,7.558108,60.637005
1618378880.482189,117.000000,0.000000,4256.410156,4256.922852,4185.128418,4170.769043,4253.333496,450.000000,3.000000,55.000000,,,,0.000000,4.000000,4.000000,4.000000,4.000000,4.000000,100.000000,,,,,,,,,,,,,,,,,,,
1618378880.490009,118.000000,0.000000,4244.615234,4246.153809,4179.487305,4154.871582,4246.153809,450.000000,3.000000,55.000000,,,,0.000000,4.000000,4.000000,4.000000,4.000000,4.000000,100.000000,,,,,,,,59.000000,0.000000,0.285923,0.587158,0.283691,-0.702148,0.986343,0.056153,-0.151369,-12.365881,6.084513,60.973549
1618378880.497830,119.000000,0.000000,4242.563965,4262.563965,4180.000000,4157.436035,4231.794922,16226.000000,3.000000,55.000000,,,,0.000000,4.000000,4.000000,4.000000,4.000000,4.000000,100.000000,,,,,,,,,,,,,,,,,,,
1618378880.505651,120.000000,0.000000,4229.743652,4262.051270,4174.871582,4157.948730,4218.461426,450.000000,3.000000,55.000000,,,,0.000000,4.000000,4.000000,4.000000,4.000000,4.000000,100.000000,,,,,,,,60.000000,0.000000,0.285923,0.587158,0.283691,-0.702148,1.001480,0.057618,-0.160159,-12.564861,4.937723,61.096992
1618378880.513472,121.000000,0.000000,4213.846191,4241.025879,4167.179688,4144.615234,4213.333496,450.000000,3.000000,55.000000,,,,0.000000,4.000000,4.000000,4.000000,4.000000,4.000000,100.000000,,,,,,,,,,,,,,,,,,,
1618378880.521293,122.000000,0.000000,4219.487305,4248.205078,4169.230957,4154.358887,4221.025879,450.000000,3.000000,55.000000,,,,0.000000,4.000000,4.000000,4.000000,4.000000,4.000000,100.000000,,,,,,,,61.000000,0.000000,0.285923,0.587158,0.283691,-0.702148,0.998550,0.065431,-0.157229,-12.504683,3.965428,61.267906
1618378880.529114,123.000000,0.000000,4223.077148,4253.333496,4172.820313,4160.512695,4222.051270,16226.000000,3.000000,55.000000,,,,0.000000,4.000000,4.000000,4.000000,4.000000,4.000000,100.000000,,,,,,,,,,,,,,,,,,,
1618378880.536934,124.000000,0.000000,4214.871582,4231.282227,4168.205078,4139.487305,4216.410156,450.000000,3.000000,55.000000,,,,0.000000,4.000000,4.000000,4.000000,4.000000,4.000000,100.000000,,,,,,,,62.000000,0.000000,0.285923,0.587158,0.283691,-0.702148,0.996597,0.062501,-0.157717,-12.450521,2.851101,61.541359
1618378880.544755,125.000000,0.000000,4220.512695,4230.256348,4165.128418,4144.615234,4223.589844,450.000000,3.000000,55.000000,,,,0.000000,4.000000,4.000000,4.000000,4.000000,4.000000,100.000000,,,,,,,,,,,,,,,,,,,
1618378880.552476,126.000000,0.000000,4230.769043,4255.384766,4170.256348,4170.769043,4231.282227,450.000000,3.000000,55.000000,,,,0.000000,4.000000,4.000000,4.000000,4.000000,4.000000,100.000000,,,,,,,,63.000000,0.000000,0.285923,0.587158,0.283691,-0.702148,0.986343,0.059083,-0.160647,-12.581223,1.788391,61.727654
1618378880.560298,127.000000,0.000000,4220.512695,4264.615234,4170.256348,4168.717773,4220.512695,234.000000,3.000000,55.000000,,,,0.000000,4.000000,4.000000,4.000000,4.000000,4.000000,100.000000,0.972656,100.000000,4.000000,4.000000,4.000000,4.000000,4.000000,,,,,,,,,,,,
1618378880.568119,0.000000,0.000000,4207.692383,4250.256348,4161.538574,4153.846191,4211.282227,450.000000,3.000000,55.000000,,,,0.000000,4.000000,4.000000,4.000000,4.000000,4.000000,100.000000,,,,,,,,0.000000,0.000000,0.286165,0.587158,0.283447,-0.702148,0.985855,0.066407,-0.148928,-12.519408,1.011398,61.955132
1618378880.575940,1.000000,0.000000,4214.871582,4249.230957,4158.461426,4158.974121,4220.000000,450.000000,3.000000,55.000000,,,,0.000000,4.000000,4.000000,4.000000,4.000000,4.000000,100.000000,,,,,,,,,,,,,,,,,,,
1618378880.583761,2.000000,0.000000,4226.666504,4249.230957,4163.077148,4171.282227,4229.743652,16236.000000,3.000000,55.000000,,,,0.000000,4.000000,4.000000,4.000000,4.000000,4.000000,100.000000,,,,,,,,1.000000,0.000000,0.286067,0.586914,0.283447,-0.702393,0.982925,0.048341,-0.160159,-12.643221,4.080472,60.185955
1618378880.591582,3.000000,0.000000,4230.256348,4238.974121,4166.153809,4164.102539,4233.846191,450.000000,3.000000,55.000000,,,,0.000000,4.000000,4.000000,4.000000,4.000000,4.000000,100.000000,,,,,,,,,,,,,,,,,,,
1618378880.599403,4.000000,0.000000,4227.692383,4253.846191,4162.051270,4151.794922,4233.333496,16243.000000,3.000000,55.000000,,,,0.000000,4.000000,4.000000,4.000000,4.000000,4.000000,100.000000,,,,,,,,2.000000,0.000000,0.285825,0.586914,0.283691,-0.702393,0.982925,0.068360,-0.156741,-12.515390,3.074272,60.567604
1618378880.607224,5.000000,0.000000,4216.922852,4273.846191,4153.846191,4153.846191,4218.974121,450.000000,3.000000,55.000000,,,,0.000000,4.000000,4.000000,4.000000,4.000000,4.000000,100.000000,,,,,,,,,,,,,,,,,,,
1618378880.615045,6.000000,0.000000,4203.589844,4254.871582,4151.794922,4162.051270,4203.589844,16195.000000,3.000000,55.000000,,,,0.000000,4.000000,4.000000,4.000000,4.000000,4.000000,100.000000,,,,,,,,3.000000,0.000000,0.286083,0.586670,0.283936,-0.702393,0.992691,0.052247,-0.152346,-12.519974,2.108876,60.731644
1618378880.622766,7.000000,0.000000,4203.589844,4237.436035,4158.974121,4164.102539,4205.128418,450.000000,3.000000,55.000000,,,,0.000000,4.000000,4.000000,4.000000,4.000000,4.000000,100.000000,,,,,,,,,,,,,,,,,,,
1618378880.630586,8.000000,0.000000,4207.179688,4254.871582,4161.538574,4164.102539,4210.769043,450.000000,3.000000,55.000000,,,,0.000000,4.000000,4.000000,4.000000,4.000000,4.000000,100.000000,,,,,,,,4.000000,0.000000,0.286067,0.586914,0.283447,-0.702393,0.982925,0.048341,-0.160159,-12.524099,5.128018,59.024998
1618378880.638407,9.000000,0.000000,4202.051270,4255.897461,4157.948730,4166.153809,4207.179688,16241.000000,3.000000,55.000000,,,,0.000000,4.000000,4.000000,4.000000,4.000000,4.000000,100.000000,,,,,,,,,,,,,,,,,,,
1618378880.646228,10.000000,0.000000,4204.615234,4232.820313,4164.615234,4171.794922,4205.641113,450.000000,3.000000,55.000000,,,,0.000000,4.000000,4.000000,4.000000,4.000000,4.000000,100.000000,,,,,,,,5.000000,0.000000,0.286083,0.586670,0.283936,-0.702393,0.992691,0.052247,-0.152346,-12.527812,3.957247,59.343296
1618378880.654048,11.000000,0.000000,4208.205078,4238.461426,4161.538574,4165.641113,4207.179688,16193.000000,3.000000,55.000000,,,,0.000000,4.000000,4.000000,4.000000,4.000000,4.000000,100.000000,,,,,,,,,,,,,,,,,,,
1618378880.661869,12.000000,0.000000,4200.512695,4256.410156,4145.128418,4145.641113,4199.487305,450.000000,3.000000,55.000000,,,,0.000000,4.000000,4.000000,4.000000,4.000000,4.000000,100.000000,,,,,,,,6.000000,0.000000,0.286083,0.586670,0.283936,-0.702393,0.989273,0.062989,-0.152346,-12.411523,3.023184,59.749397
1618378880.669689,13.000000,0.000000,4197.948730,4244.102539,4146.153809,4149.230957,4193.333496,450.000000,3.000000,55.000000,,,,0.000000,4.000000,4.000000,4.000000,4.000000,4.000000,100.000000,,,,,,,,,,,,,,,,,,,
1618378880.677510,14.000000,0.000000,4208.205078,4233.846191,4160.512695,4170.769043,4200.512695,450.000000,3.000000,55.000000,,,,0.000000,4.000000,4.000000,4.000000,4.000000,4.000000,100.000000,,,,,,,,7.000000,0.000000,0.286341,0.586426,0.284180,-0.702393,0.985367,0.062013,-0.141604,-12.486308,5.950895,58.320423
1618378880.685331,15.000000,0.000000,4208.205078,4256.922852,4161.538574,4166.153809,4204.102539,16193.000000,3.000000,55.000000,,,,0.000000,4.000000,4.000000,4.000000,4.000000,4.000000,100.000000,,,,,,,,,,,,,,,,,,,
1618378880.693052,16.000000,0.000000,4196.410156,4272.820313,4165.128418,4162.051270,4198.461426,0.000000,3.000000,55.000000,,,,0.000000,4.000000,4.000000,4.000000,4.000000,4.000000,100.000000,,,,,,,,8.000000,0.000000,0.285499,0.586426,0.284424,-0.702637,0.996109,0.062501,-0.151858,-12.493800,4.697837,58.828812
1618378880.700873,17.000000,0.000000,4202.563965,4255.384766,4182.563965,4178.461426,4206.666504,0.000000,3.000000,55.000000,,,,0.000000,4.000000,4.000000,4.000000,4.000000,4.000000,100.000000,,,,,,,,,,,,,,,,,,,
1618378880.708694,18.000000,0.000000,4216.410156,4236.922852,4184.102539,4172.820313,4215.897461,0.000000,3.000000,55.000000,,,,0.000000,4.000000,4.000000,4.000000,4.000000,4.000000,100.000000,,,,,,,,9.000000,0.000000,0.286000,0.586182,0.284424,-0.702637,0.997086,0.061524,-0.153811,-12.380913,7.398267,57.372269
1618378880.716515,19.000000,0.000000,4211.794922,4250.769043,4170.769043,4161.538574,4206.666504,0.000000,3.000000,55.000000,,,,0.000000,4.000000,4.000000,4.000000,4.000000,4.000000,100.000000,,,,,,,,,,,,,,,,,,,
1618378880.724336,20.000000,0.000000,4209.743652,4277.948730,4170.769043,4181.538574,4208.717773,0.000000,3.000000,55.000000,,,,0.000000,4.000000,4.000000,4.000000,4.000000,4.000000,100.000000,,,,,,,,10.000000,0.000000,0.286257,0.585938,0.284668,-0.702637,1.002457,0.055177,-0.149905,-12.279313,6.000472,58.095100
1618378880.732157,21.000000,0.000000,4221.538574,4273.333496,4177.436035,4197.436035,4226.666504,0.000000,3.000000,55.000000,,,,0.000000,4.000000,4.000000,4.000000,4.000000,4.000000,100.000000,,,,,,,,,,,,,,,,,,,
1618378880.739978,22.000000,0.000000,4225.641113,4253.846191,4170.769043,4182.051270,4224.615234,0.000000,3.000000,55.000000,,,,0.000000,4.000000,4.000000,4.000000,4.000000,4.000000,100.000000,,,,,,,,11.000000,0.000000,0.285900,0.585938,0.284424,-0.702881,0.996597,0.067872,-0.150393,-12.367320,8.451008,56.652111
1618378880.747799,23.000000,0.000000,4224.102539,4260.512695,4161.538574,4173.333496,4212.307617,0.000000,3.000000,55.000000,,,,0.000000,4.000000,4.000000,4.000000,4.000000,4.000000,100.000000,,,,,,,,,,,,,,,,,,,
1618378880.755621,24.000000,0.000000,4228.205078,4258.461426,4164.102539,4175.897461,4218.974121,0.000000,3.000000,55.000000,,,,0.000000,4.000000,4.000000,4.000000,4.000000,4.000000,100.000000,,,,,,,,12.000000,0.000000,0.286400,0.585693,0.284424,-0.702881,0.986343,0.057618,-0.150393,-12.267079,7.127385,55.473053
1618378880.763342,25.000000,0.000000,4233.333496,4235.897461,4166.153809,4161.025879,4234.871582,0.000000,3.000000,55.000000,,,,0.000000,4.000000,4.000000,4.000000,4.000000,4.000000,100.000000,,,,,,,,,,,,,,,,,,,
1618378880.771163,26.000000,0.000000,4230.769043,4249.230957,4167.692383,4157.948730,4235.897461,0.000000,3.000000,55.000000,,,,0.000000,4.000000,4.000000,4.000000,4.000000,4.000000,100.000000,,,,,,,,13.000000,0.000000,0.285800,0.585693,0.284424,-0.703125,0.982437,0.073243,-0.153323,-12.176864,5.876307,56.385807
1618378880.778985,27.000000,0.000000,4223.077148,4280.512695,4175.384766,4175.384766,4224.615234,0.000000,3.000000,55.000000,,,,0.000000,4.000000,4.000000,4.000000,4.000000,4.000000,100.000000,,,,,,,,,,,,,,,,,,,
1618378880.786806,28.000000,0.000000,4218.461426,4272.307617,4178.461426,4175.897461,4218.974121,0.000000,3.000000,55.000000,,,,0.000000,4.000000,4.000000,4.000000,4.000000,4.000000,100.000000,,,,,,,,14.000000,0.000000,0.286043,0.585693,0.284180,-0.703125,1.010758,0.065431,-0.155764,-12.215300,8.458891,55.293194
1618378880.794627,29.000000,0.000000,4215.897461,4253.846191,4173.846191,4169.743652,4225.128418,0.000000,3.000000,55.000000,,,,0.000000,4.000000,4.000000,4.000000,4.000000,4.000000,100.000000,,,,,,,,,,,,,,,,,,,
1618378880.802449,30.000000,0.000000,4201.538574,4255.897461,4170.256348,4178.974121,4223.589844,0.000000,3.000000,55.000000,,,,0.000000,4.000000,4.000000,4.000000,4.000000,4.000000,100.000000,,,,,,,,15.000000,0.000000,0.286043,0.585693,0.284180,-0.703125,1.000504,0.072755,-0.158694,-12.309708,7.014849,55.984673
1618378880.810270,31.000000,0.000000,4183.589844,4254.358887,4161.538574,4176.922852,4205.641113,0.000000,3.000000,55.000000,,,,0.000000,4.000000,4.000000,4.000000,4.000000,4.000000,100.000000,,,,,,,,,,,,,,,,,,,
1618378880.818091,32.000000,0.000000,4181.025879,4259.487305,4154.871582,4163.589844,4192.820313,0.000000,3.000000,55.000000,,,,0.000000,4.000000,4.000000,4.000000,4.000000,4.000000,100.000000,,,,,,,,16.000000,0.000000,0.286784,0.585449,0.283936,-0.703125,0.982925,0.066407,-0.155276,-12.215229,5.775025,56.846264
1618378880.825913,33.000000,0.000000,4185.128418,4270.769043,4172.820313,4170.256348,4203.077148,0.000000,3.000000,55.000000,,,,0.000000,4.000000,4.000000,4.000000,4.000000,4.000000,100.000000,,,,,,,,,,,,,,,,,,,
1618378880.833734,34.000000,0.000000,4180.000000,4243.077148,4188.717773,4174.358887,4210.769043,0.000000,3.000000,55.000000,,,,0.000000,4.000000,4.000000,4.000000,4.000000,4.000000,100.000000,,,,,,,,17.000000,0.000000,0.286427,0.585449,0.283691,-0.703369,0.995621,0.061036,-0.145998,-12.249829,8.367737,57.561882
1618378880.841455,35.000000,0.000000,4172.307617,4229.743652,4175.384766,4166.666504,4196.922852,0.000000,3.000000,55.000000,,,,0.000000,4.000000,4.000000,4.000000,4.000000,4.000000,100.000000,,,,,,,,,,,,,,,,,,,
1618378880.849276,36.000000,0.000000,4168.717773,4267.692383,4166.666504,4176.922852,4189.743652,0.000000,3.000000,55.000000,,,,0.000000,4.000000,4.000000,4.000000,4.000000,4.000000,100.000000,,,,,,,,18.000000,0.000000,0.286568,0.585205,0.283447,-0.703613,0.987808,0.052735,-0.162112,-12.340784,10.760993,58.205940
1618378880.857096,37.000000,0.000000,4173.846191,4278.461426,4172.307617,4178.461426,4203.589844,0.000000,3.000000,55.000000,,,,0.000000,4.000000,4.000000,4.000000,4.000000,4.000000,100.000000,,,,,,,,,,,,,,,,,,,
1618378880.864917,38.000000,0.000000,4190.769043,4260.000000,4171.282227,4157.948730,4216.410156,0.000000,3.000000,55.000000,,,,0.000000,4.000000,4.000000,4.000000,4.000000,4.000000,100.000000,,,,,,,,19.000000,0.000000,0.286708,0.584961,0.283203,-0.703857,0.984878,0.052735,-0.158694,-12.243197,12.735477,56.931313
1618378880.872738,39.000000,0.000000,4202.563965,4278.974121,4169.230957,4168.205078,4223.589844,0.000000,3.000000,55.000000,,,,0.000000,4.000000,4.000000,4.000000,4.000000,4.000000,100.000000,,,,,,,,,,,,,,,,,,,
1618378880.880559,40.000000,0.000000,4207.692383,4295.897461,4177.948730,4197.436035,4231.282227,0.000000,3.000000,55.000000,,,,0.000000,4.000000,4.000000,4.000000,4.000000,4.000000,100.000000,,,,,,,,20.000000,0.000000,0.287088,0.584717,0.282715,-0.704102,0.998062,0.052247,-0.164065,-12.334816,14.691959,55.724335
1618378880.888380,41.000000,0.000000,4214.871582,4275.897461,4185.128418,4192.820313,4235.897461,0.000000,3.000000,55.000000,,,,0.000000,4.000000,4.000000,4.000000,4.000000,4.000000,100.000000,,,,,,,,,,,,,,,,,,,
1618378880.896201,42.000000,0.000000,4210.769043,4272.307617,4186.153809,4176.410156,4233.846191,0.000000,3.000000,55.000000,,,,0.000000,4.000000,4.000000,4.000000,4.000000,4.000000,100.000000,,,,,,,,21.000000,0.000000,0.286129,0.584717,0.282471,-0.704590,1.000504,0.064454,-0.157717,-12.297642,16.452793,54.578236
1618378880.904022,43.000000,0.000000,4200.000000,4288.205078,4186.666504,4180.000000,4231.282227,0.000000,3.000000,55.000000,,,,0.000000,4.000000,4.000000,4.000000,4.000000,4.000000,100.000000,,,,,,,,,,,,,,,,,,,
1618378880.911742,44.000000,0.000000,4205.641113,4292.307617,4186.666504,4183.077148,4227.179688,0.000000,3.000000,55.000000,,,,0.000000,4.000000,4.000000,4.000000,4.000000,4.000000,100.000000,,,,,,,,22.000000,0.000000,0.286508,0.584473,0.281982,-0.704834,0.973159,0.054200,-0.160647,-12.324000,14.269176,55.341213
1618378880.919563,45.000000,0.000000,4213.333496,4285.128418,4185.641113,4183.589844,4222.051270,0.000000,3.000000,55.000000,,,,0.000000,4.000000,4.000000,4.000000,4.000000,4.000000,100.000000,,,,,,,,,,,,,,,,,,,
1618378880.927383,46.000000,0.000000,4208.205078,4282.563965,4176.410156,4183.589844,4225.128418,0.000000,3.000000,55.000000,,,,0.000000,4.000000,4.000000,4.000000,4.000000,4.000000,100.000000,,,,,,,,23.000000,0.000000,0.286645,0.584229,0.281738,-0.705078,0.986831,0.064454,-0.162600,-12.467354,15.892842,54.173611
1618378880.935204,47.000000,0.000000,4207.179688,4292.820313,4164.615234,4163.077148,4231.794922,0.000000,3.000000,55.000000,,,,0.000000,4.000000,4.000000,4.000000,4.000000,4.000000,100.000000,,,,,,,,,,,,,,,,,,,
1618378880.943025,48.000000,0.000000,4216.410156,4293.846191,4162.051270,4158.974121,4229.743652,0.000000,3.000000,55.000000,,,,0.000000,4.000000,4.000000,4.000000,4.000000,4.000000,100.000000,,,,,,,,24.000000,0.000000,0.285682,0.584229,0.281494,-0.705566,0.989761,0.053712,-0.166018,-12.596372,13.525958,55.096680
1618378880.950845,49.000000,0.000000,4218.461426,4285.128418,4164.102539,4183.077148,4229.230957,0.000000,3.000000,55.000000,,,,0.000000,4.000000,4.000000,4.000000,4.000000,4.000000,100.000000,,,,,,,,,,,,,,,,,,,
1618378880.958666,50.000000,0.000000,4221.025879,4291.282227,4160.512695,4194.358887,4241.538574,0.000000,3.000000,55.000000,,,,0.000000,4.000000,4.000000,4.000000,4.000000,4.000000,100.000000,,,,,,,,25.000000,0.000000,0.285455,0.583984,0.281006,-0.706055,0.985855,0.058595,-0.167971,-12.772304,11.515393,55.927441
1618378880.966487,51.000000,0.000000,4228.205078,4290.769043,4163.077148,4188.717773,4242.563965,0.000000,3.000000,55.000000,,,,0.000000,4.000000,4.000000,4.000000,4.000000,4.000000,100.000000,,,,,,,,,,,,,,,,,,,
1618378880.974208,52.000000,0.000000,4224.615234,4280.512695,4172.820313,4187.692383,4231.282227,0.000000,3.000000,55.000000,,,,0.000000,4.000000,4.000000,4.000000,4.000000,4.000000,100.000000,,,,,,,,26.000000,0.000000,0.284986,0.583740,0.280762,-0.706543,0.973648,0.063478,-0.164553,-12.751196,9.765700,56.854572
1618378880.982029,53.000000,0.000000,4224.615234,4288.717773,4172.307617,4187.692383,4237.948730,0.000000,3.000000,55.000000,,,,0.000000,4.000000,4.000000,4.000000,4.000000,4.000000,100.000000,,,,,,,,,,,,,,,,,,,
1618378880.989851,54.000000,0.000000,4231.282227,4300.000000,4168.205078,4184.615234,4248.205078,0.000000,3.000000,55.000000,,,,0.000000,4.000000,4.000000,4.000000,4.000000,4.000000,100.000000,,,,,,,,27.000000,0.000000,0.285121,0.583496,0.280518,-0.706787,0.995132,0.076173,-0.177249,-12.672383,11.959345,55.715080
1618378880.997672,55.000000,0.000000,4226.153809,4302.051270,4173.846191,4183.077148,4245.128418,0.000000,3.000000,55.000000,,,,0.000000,4.000000,4.000000,4.000000,4.000000,4.000000,100.000000,,,,,,,,,,,,,,,,,,,
1618378881.005493,56.000000,0.000000,4218.974121,4302.051270,4183.589844,4175.384766,4243.077148,0.000000,3.000000,55.000000,,,,0.000000,4.000000,4.000000,4.000000,4.000000,4.000000,100.000000,,,,,,,,28.000000,0.000000,0.284149,0.583496,0.280273,-0.707275,0.997086,0.063478,-0.160647,-12.661267,10.225072,56.484001
1618378881.013315,57.000000,0.000000,4218.461426,4291.794922,4179.487305,4175.384766,4237.436035,0.000000,3.000000,55.000000,,,,0.000000,4.000000,4.000000,4.000000,4.000000,4.000000,100.000000,,,,,,,,,,,,,,,,,,,
1618378881.021136,58.000000,0.000000,4210.769043,4277.948730,4167.179688,4184.615234,4226.153809,0.000000,3.000000,55.000000,,,,0.000000,4.000000,4.000000,4.000000,4.000000,4.000000,100.000000,,,,,,,,29.000000,0.000000,0.283915,0.583252,0.279785,-0.707764,0.991714,0.058595,-0.170413,-12.651263,8.604411,57.355476
1618378881.028957,59.000000,0.000000,4203.589844,4290.769043,4166.666504,4187.179688,4225.128418,0.000000,3.000000,55.000000,,,,0.000000,4.000000,4.000000,4.000000,4.000000,4.000000,100.000000,,,,,,,,,,,,,,,,,,,
1618378881.036778,60.000000,0.000000,4206.666504,4287.179688,4170.769043,4184.615234,4228.205078,0.000000,3.000000,55.000000,,,,0.000000,4.000000,4.000000,4.000000,4.000000,4.000000,100.000000,,,,,,,,30.000000,0.000000,0.283418,0.583252,0.279053,-0.708252,0.981949,0.071290,-0.179690,-12.642260,10.914185,55.926636
1618378881.044600,61.000000,0.000000,4203.077148,4255.897461,4162.563965,4173.846191,4219.487305,0.000000,3.000000,55.000000,,,,0.000000,4.000000,4.000000,4.000000,4.000000,4.000000,100.000000,,,,,,,,,,,,,,,,,,,
1618378881.052321,62.000000,0.000000,4195.384766,4261.025879,4152.307617,4161.538574,4212.307617,0.000000,3.000000,55.000000,,,,0.000000,4.000000,4.000000,4.000000,4.000000,4.000000,100.000000,,,,,,,,31.000000,0.000000,0.282677,0.583252,0.278564,-0.708740,0.986831,0.070314,-0.183597,-12.634156,9.224612,56.853848
1618378881.060142,63.000000,0.000000,4197.436035,4289.743652,4154.871582,4161.025879,4216.410156,0.000000,3.000000,55.000000,,,,0.000000,4.000000,4.000000,4.000000,4.000000,4.000000,100.000000,1.000000,100.000000,4.000000,4.000000,4.000000,4.000000,4.000000,,,,,,,,,,,,
1618378881.067962,64.000000,0.000000,4203.589844,4290.256348,4160.000000,4158.974121,4219.487305,450.000000,3.000000,55.000000,,,,0.000000,4.000000,4.000000,4.000000,4.000000,4.000000,100.000000,,,,,,,,32.000000,0.000000,0.282917,0.583008,0.277588,-0.709229,0.994156,0.050782,-0.171389,-12.626863,7.703997,57.688335
1618378881.075783,65.000000,0.000000,4206.666504,4277.436035,4162.563965,4158.461426,4215.897461,450.000000,3.000000,55.000000,,,,0.000000,4.000000,4.000000,4.000000,4.000000,4.000000,100.000000,,,,,,,,,,,,,,,,,,,
1618378881.083604,66.000000,0.000000,4203.589844,4280.512695,4165.641113,4168.717773,4211.794922,16231.000000,3.000000,55.000000,,,,0.000000,4.000000,4.000000,4.000000,4.000000,4.000000,100.000000,,,,,,,,33.000000,0.000000,0.282648,0.583008,0.276611,-0.709717,0.983902,0.054200,-0.170413,-12.680116,6.395259,58.379562
1618378881.091425,67.000000,0.000000,4201.025879,4284.102539,4167.179688,4162.051270,4216.410156,450.000000,3.000000,55.000000,,,,0.000000,4.000000,4.000000,4.000000,4.000000,4.000000,100.000000,,,,,,,,,,,,,,,,,,,
1618378881.099246,68.000000,0.000000,4209.230957,4280.512695,4168.205078,4156.410156,4224.102539,16219.000000,3.000000,55.000000,,,,0.000000,4.000000,4.000000,4.000000,4.000000,4.000000,100.000000,,,,,,,,34.000000,0.000000,0.282110,0.583252,0.275391,-0.710205,0.997086,0.062013,-0.168460,-12.608411,8.866133,59.061481
1618378881.107067,69.000000,0.000000,4217.436035,4278.974121,4167.179688,4176.410156,4224.102539,450.000000,3.000000,55.000000,,,,0.000000,4.000000,4.000000,4.000000,4.000000,4.000000,100.000000,,,,,,,,,,,,,,,,,,,
1618378881.114888,70.000000,0.000000,4220.512695,4290.256348,4166.153809,4182.563965,4224.615234,16201.000000,3.000000,55.000000,,,,0.000000,4.000000,4.000000,4.000000,4.000000,4.000000,100.000000,,,,,,,,35.000000,0.000000,0.282917,0.583008,0.277588,-0.709229,0.994156,0.050782,-0.171389,-12.663508,11.329180,57.641487
1618378881.122605,71.000000,0.000000,4224.615234,4297.948730,4169.743652,4170.256348,4231.794922,450.000000,3.000000,55.000000,,,,0.000000,4.000000,4.000000,4.000000,4.000000,4.000000,100.000000,,,,,,,,,,,,,,,,,,,
1618378881.130422,72.000000,0.000000,4225.128418,4290.769043,4170.769043,4173.846191,4238.461426,450.000000,3.000000,55.000000,,,,0.000000,4.000000,4.000000,4.000000,4.000000,4.000000,100.000000,,,,,,,,36.000000,0.000000,0.282110,0.583252,0.275391,-0.710205,0.997086,0.062013,-0.168460,-12.593465,13.306661,58.397213
1618378881.138239,73.000000,0.000000,4227.692383,4306.153809,4167.692383,4174.358887,4246.153809,16229.000000,3.000000,55.000000,,,,0.000000,4.000000,4.000000,4.000000,4.000000,4.000000,100.000000,,,,,,,,,,,,,,,,,,,
1618378881.145956,74.000000,0.000000,4234.871582,4315.384766,4167.692383,4157.436035,4247.179688,450.000000,3.000000,55.000000,,,,0.000000,4.000000,4.000000,4.000000,4.000000,4.000000,100.000000,,,,,,,,37.000000,0.000000,0.281959,0.583008,0.274170,-0.710938,0.988785,0.053712,-0.166506,-12.650056,11.377841,59.137180
1618378881.153773,75.000000,0.000000,4229.743652,4291.282227,4163.077148,4145.641113,4231.282227,16216.000000,3.000000,55.000000,,,,0.000000,4.000000,4.000000,4.000000,4.000000,4.000000,100.000000,,,,,,,,,,,,,,,,,,,
1618378881.161590,76.000000,0.000000,4207.692383,4286.666504,4148.205078,4133.333496,4211.794922,450.000000,3.000000,55.000000,,,,0.000000,4.000000,4.000000,4.000000,4.000000,4.000000,100.000000,,,,,,,,38.000000,0.000000,0.281406,0.583252,0.272949,-0.711426,0.987320,0.054688,-0.175296,-12.641173,13.410272,57.769432
1618378881.169311,77.000000,0.000000,4198.461426,4297.436035,4144.615234,4129.743652,4213.333496,450.000000,3.000000,55.000000,,,,0.000000,4.000000,4.000000,4.000000,4.000000,4.000000,100.000000,,,,,,,,,,,,,,,,,,,
1618378881.177133,78.000000,0.000000,4218.461426,4295.897461,4157.436035,4150.769043,4230.256348,450.000000,3.000000,55.000000,,,,0.000000,4.000000,4.000000,4.000000,4.000000,4.000000,100.000000,,,,,,,,39.000000,0.000000,0.281352,0.583252,0.271729,-0.711914,0.981460,0.050782,-0.183108,-12.872440,15.418904,58.631992
1618378881.184954,79.000000,0.000000,4235.897461,4301.538574,4170.769043,4162.051270,4240.512695,16216.000000,3.000000,55.000000,,,,0.000000,4.000000,4.000000,4.000000,4.000000,4.000000,100.000000,,,,,,,,,,,,,,,,,,,
1618378881.192775,80.000000,0.000000,4237.436035,4303.589844,4174.871582,4160.000000,4242.051270,450.000000,3.000000,55.000000,,,,0.000000,4.000000,4.000000,4.000000,4.000000,4.000000,100.000000,,,,,,,,40.000000,0.000000,0.280909,0.583252,0.270264,-0.712646,0.984878,0.046387,-0.174319,-12.841319,13.219045,59.288670
1618378881.200597,81.000000,0.000000,4230.256348,4299.487305,4171.794922,4169.230957,4237.948730,450.000000,3.000000,55.000000,,,,0.000000,4.000000,4.000000,4.000000,4.000000,4.000000,100.000000,,,,,,,,,,,,,,,,,,,
1618378881.208418,82.000000,0.000000,4221.025879,4307.692383,4165.128418,4166.666504,4222.563965,450.000000,3.000000,55.000000,,,,0.000000,4.000000,4.000000,4.000000,4.000000,4.000000,100.000000,,,,,,,,41.000000,0.000000,0.280334,0.583496,0.269043,-0.713135,0.988785,0.051270,-0.178225,-12.753494,11.418617,59.760048
1618378881.216239,83.000000,0.000000,4225.641113,4311.794922,4162.051270,4154.358887,4224.102539,16216.000000,3.000000,55.000000,,,,0.000000,4.000000,4.000000,4.000000,4.000000,4.000000,100.000000,,,,,,,,,,,,,,,,,,,
1618378881.224061,84.000000,0.000000,4241.025879,4305.641113,4161.025879,4163.589844,4243.077148,450.000000,3.000000,55.000000,,,,0.000000,4.000000,4.000000,4.000000,4.000000,4.000000,100.000000,,,,,,,,42.000000,0.000000,0.280260,0.583496,0.267822,-0.713623,0.987808,0.062501,-0.186526,-12.734267,9.678602,60.244102
1618378881.231882,85.000000,0.000000,4241.025879,4304.102539,4159.487305,4169.743652,4240.000000,450.000000,3.000000,55.000000,,,,0.000000,4.000000,4.000000,4.000000,4.000000,4.000000,100.000000,,,,,,,,,,,,,,,,,,,
1618378881.239602,86.000000,0.000000,4230.769043,4302.563965,4155.897461,4157.436035,4225.128418,450.000000,3.000000,55.000000,,,,0.000000,4.000000,4.000000,4.000000,4.000000,4.000000,100.000000,,,,,,,,43.000000,0.000000,0.279671,0.583740,0.266602,-0.714111,0.985855,0.045411,-0.192386,-12.716964,8.052773,60.739567
1618378881.247422,87.000000,0.000000,4225.128418,4297.948730,4151.282227,4153.333496,4224.102539,16216.000000,3.000000,55.000000,,,,0.000000,4.000000,4.000000,4.000000,4.000000,4.000000,100.000000,,,,,,,,,,,,,,,,,,,
1618378881.255242,88.000000,0.000000,4221.538574,4306.666504,4154.871582,4157.948730,4229.230957,450.000000,3.000000,55.000000,,,,0.000000,4.000000,4.000000,4.000000,4.000000,4.000000,100.000000,,,,,,,,44.000000,0.000000,0.278960,0.583740,0.265381,-0.714844,0.987808,0.050782,-0.188479,-12.641574,6.709157,61.185486
1618378881.263062,89.000000,0.000000,4218.974121,4294.871582,4162.563965,4157.948730,4223.077148,450.000000,3.000000,55.000000,,,,0.000000,4.000000,4.000000,4.000000,4.000000,4.000000,100.000000,,,,,,,,,,,,,,,,,,,
1618378881.270881,90.000000,0.000000,4213.333496,4275.384766,4162.563965,4152.820313,4210.256348,450.000000,3.000000,55.000000,,,,0.000000,4.000000,4.000000,4.000000,4.000000,4.000000,100.000000,,,,,,,,45.000000,0.000000,0.278355,0.583984,0.264160,-0.715332,1.001480,0.042481,-0.189456,-12.633539,9.328087,59.612904
1618378881.278701,91.000000,0.000000,4212.307617,4301.538574,4160.512695,4154.871582,4211.794922,16216.000000,3.000000,55.000000,,,,0.000000,4.000000,4.000000,4.000000,4.000000,4.000000,100.000000,,,,,,,,,,,,,,,,,,,
1618378881.286521,92.000000,0.000000,4222.563965,4325.128418,4166.153809,4157.436035,4223.589844,450.000000,3.000000,55.000000,,,,0.000000,4.000000,4.000000,4.000000,4.000000,4.000000,100.000000,,,,,,,,46.000000,0.000000,0.277909,0.584229,0.263428,-0.715576,0.989761,0.046876,-0.183597,-12.566493,7.737309,60.111671
1618378881.294242,93.000000,0.000000,4226.153809,4303.589844,4171.794922,4141.538574,4227.179688,450.000000,3.000000,55.000000,,,,0.000000,4.000000,4.000000,4.000000,4.000000,4.000000,100.000000,,,,,,,,,,,,,,,,,,,
1618378881.302063,94.000000,0.000000,4223.077148,4294.871582,4172.307617,4140.000000,4223.589844,450.000000,3.000000,55.000000,,,,0.000000,4.000000,4.000000,4.000000,4.000000,4.000000,100.000000,,,,,,,,47.000000,0.000000,0.277691,0.584473,0.262451,-0.715820,0.995621,0.046876,-0.188479,-12.685597,6.365425,60.560566
1618378881.309884,95.000000,0.000000,4225.128418,4316.410156,4174.871582,4161.025879,4219.487305,16216.000000,3.000000,55.000000,,,,0.000000,4.000000,4.000000,4.000000,4.000000,4.000000,100.000000,,,,,,,,,,,,,,,,,,,
1618378881.317705,96.000000,0.000000,4222.563965,4313.846191,4177.948730,4163.589844,4216.922852,450.000000,3.000000,55.000000,,,,0.000000,4.000000,4.000000,4.000000,4.000000,4.000000,100.000000,,,,,,,,48.000000,0.000000,0.277239,0.584717,0.261719,-0.716064,0.989761,0.054200,-0.181155,-12.732975,5.250359,59.050476
1618378881.325526,97.000000,0.000000,4216.410156,4291.794922,4177.436035,4151.794922,4221.538574,450.000000,3.000000,55.000000,,,,0.000000,4.000000,4.000000,4.000000,4.000000,4.000000,100.000000,,,,,,,,,,,,,,,,,,,
1618378881.333346,98.000000,0.000000,4214.358887,4290.256348,4175.384766,4155.897461,4223.589844,450.000000,3.000000,55.000000,,,,0.000000,4.000000,4.000000,4.000000,4.000000,4.000000,100.000000,,,,,,,,49.000000,0.000000,0.276668,0.585205,0.261230,-0.716064,0.994156,0.053712,-0.176272,-12.655985,4.127170,57.691395
1618378881.341167,99.000000,0.000000,4222.051270,4310.769043,4180.512695,4164.615234,4225.641113,16216.000000,3.000000,55.000000,,,,0.000000,4.000000,4.000000,4.000000,4.000000,4.000000,100.000000,,,,,,,,,,,,,,,,,,,
1618378881.348988,100.000000,0.000000,4238.461426,4332.820313,4188.205078,4173.846191,4244.102539,450.000000,3.000000,55.000000,,,,0.000000,4.000000,4.000000,4.000000,4.000000,4.000000,100.000000,,,,,,,,50.000000,0.000000,0.276612,0.585449,0.260742,-0.716064,0.996597,0.045899,-0.183597,-12.646509,3.116299,58.501945
1618378881.356809,101.000000,0.000000,4248.205078,4332.307617,4190.769043,4187.179688,4252.820313,450.000000,3.000000,55.000000,,,,0.000000,4.000000,4.000000,4.000000,4.000000,4.000000,100.000000,,,,,,,,,,,,,,,,,,,
1618378881.364529,102.000000,0.000000,4248.205078,4332.307617,4196.410156,4203.077148,4244.615234,450.000000,3.000000,55.000000,,,,0.000000,4.000000,4.000000,4.000000,4.000000,4.000000,100.000000,,,,,,,,51.000000,0.000000,0.276210,0.585938,0.260742,-0.715820,0.989761,0.056641,-0.180179,-12.518351,2.266331,59.171627
1618378881.372349,103.000000,0.000000,4249.743652,4340.000000,4203.589844,4206.666504,4246.666504,16216.000000,3.000000,55.000000,,,,0.000000,4.000000,4.000000,4.000000,4.000000,4.000000,100.000000,,,,,,,,,,,,,,,,,,,
1618378881.380169,104.000000,0.000000,4247.692383,4337.948730,4203.077148,4192.307617,4248.205078,450.000000,3.000000,55.000000,,,,0.000000,4.000000,4.000000,4.000000,4.000000,4.000000,100.000000,,,,,,,,52.000000,0.000000,0.276555,0.586182,0.260498,-0.715576,0.996597,0.052247,-0.178225,-12.522638,5.389358,59.714523
1618378881.387990,105.000000,0.000000,4240.512695,4327.692383,4198.974121,4191.282227,4243.077148,450.000000,3.000000,55.000000,,,,0.000000,4.000000,4.000000,4.000000,4.000000,4.000000,100.000000,,,,,,,,,,,,,,,,,,,
1618378881.395810,106.000000,0.000000,4244.102539,4312.307617,4194.871582,4204.615234,4248.717773,450.000000,3.000000,55.000000,,,,0.000000,4.000000,4.000000,4.000000,4.000000,4.000000,100.000000,,,,,,,,53.000000,0.000000,0.275920,0.586670,0.260742,-0.715332,0.990250,0.048829,-0.183108,-12.466681,4.312084,60.262947
1618378881.403630,107.000000,0.000000,4256.410156,4302.563965,4185.641113,4192.820313,4260.000000,16216.000000,3.000000,55.000000,,,,0.000000,4.000000,4.000000,4.000000,4.000000,4.000000,100.000000,,,,,,,,,,,,,,,,,,,
1618378881.411450,108.000000,0.000000,4271.794922,4316.410156,4182.563965,4176.922852,4268.205078,450.000000,3.000000,55.000000,,,,0.000000,4.000000,4.000000,4.000000,4.000000,4.000000,100.000000,,,,,,,,54.000000,0.000000,0.276435,0.586914,0.260986,-0.714844,0.992691,0.050294,-0.174807,-12.535952,7.230536,58.722805
1618378881.419270,109.000000,0.000000,4289.230957,4334.871582,4191.794922,4195.897461,4283.077148,450.000000,3.000000,55.000000,,,,0.000000,4.000000,4.000000,4.000000,4.000000,4.000000,100.000000,,,,,,,,,,,,,,,,,,,
1618378881.426991,110.000000,0.000000,4293.333496,4327.692383,4201.538574,4198.974121,4290.256348,450.000000,3.000000,55.000000,,,,0.000000,4.000000,4.000000,4.000000,4.000000,4.000000,100.000000,,,,,,,,55.000000,0.000000,0.276605,0.586914,0.261475,-0.714600,0.994156,0.048829,-0.177737,-12.658110,5.969144,59.250767
1618378881.434811,111.000000,0.000000,4284.615234,4311.282227,4204.615234,4177.436035,4280.000000,16216.000000,3.000000,55.000000,,,,0.000000,4.000000,4.000000,4.000000,4.000000,4.000000,100.000000,,,,,,,,,,,,,,,,,,,
1618378881.442631,112.000000,0.000000,4274.871582,4312.820313,4200.000000,4181.025879,4268.205078,450.000000,3.000000,55.000000,,,,0.000000,4.000000,4.000000,4.000000,4.000000,4.000000,100.000000,,,,,,,,56.000000,0.000000,0.276024,0.587158,0.262207,-0.714355,0.996597,0.036622,-0.178225,-12.768052,8.602260,57.871658
1618378881.450452,113.000000,0.000000,4268.205078,4318.461426,4194.871582,4198.974121,4258.974121,450.000000,3.000000,55.000000,,,,0.000000,4.000000,4.000000,4.000000,4.000000,4.000000,100.000000,,,,,,,,,,,,,,,,,,,
1618378881.458272,114.000000,0.000000,4268.205078,4309.230957,4194.358887,4193.333496,4260.000000,450.000000,3.000000,55.000000,,,,0.000000,4.000000,4.000000,4.000000,4.000000,4.000000,100.000000,,,,,,,,57.000000,0.000000,0.276071,0.587402,0.262939,-0.713867,1.004898,0.054688,-0.180179,-12.747370,7.203695,56.630463
1618378881.466092,115.000000,0.000000,4269.743652,4298.974121,4196.410156,4184.615234,4271.282227,16216.000000,3.000000,55.000000,,,,0.000000,4.000000,4.000000,4.000000,4.000000,4.000000,100.000000,,,,,,,,,,,,,,,,,,,
1618378881.473913,116.000000,0.000000,4273.846191,4306.153809,4195.897461,4200.000000,4276.922852,450.000000,3.000000,55.000000,,,,0.000000,4.000000,4.000000,4.000000,4.000000,4.000000,100.000000,,,,,,,,58.000000,0.000000,0.275249,0.587646,0.263916,-0.713623,1.000015,0.046387,-0.166018,-12.668940,6.124434,57.606922
1618378881.481733,117.000000,0.000000,4285.128418,4313.846191,4197.948730,4206.153809,4273.333496,450.000000,3.000000,55.000000,,,,0.000000,4.000000,4.000000,4.000000,4.000000,4.000000,100.000000,,,,,,,,,,,,,,,,,,,
1618378881.489455,118.000000,0.000000,4288.205078,4324.102539,4207.179688,4201.538574,4276.922852,450.000000,3.000000,55.000000,,,,0.000000,4.000000,4.000000,4.000000,4.000000,4.000000,100.000000,,,,,,,,59.000000,0.000000,0.275576,0.587646,0.264893,-0.713135,0.989761,0.044923,-0.172366,-12.717984,8.742020,56.332382
1618378881.497276,119.000000,0.000000,4284.102539,4343.077148,4216.922852,4218.974121,4286.153809,16216.000000,3.000000,55.000000,,,,0.000000,4.000000,4.000000,4.000000,4.000000,4.000000,100.000000,,,,,,,,,,,,,,,,,,,
1618378881.505097,120.000000,0.000000,4284.102539,4344.615234,4220.000000,4233.333496,4284.102539,450.000000,3.000000,55.000000,,,,0.000000,4.000000,4.000000,4.000000,4.000000,4.000000,100.000000,,,,,,,,60.000000,0.000000,0.275267,0.587646,0.265869,-0.712891,0.977554,0.062501,-0.166018,-12.702309,7.209849,57.159203
1618378881.512919,121.000000,0.000000,4282.563965,4324.615234,4216.410156,4215.384766,4271.282227,450.000000,3.000000,55.000000,,,,0.000000,4.000000,4.000000,4.000000,4.000000,4.000000,100.000000,,,,,,,,,,,,,,,,,,,
1618378881.520740,122.000000,0.000000,4275.384766,4318.974121,4212.307617,4198.974121,4261.025879,450.000000,3.000000,55.000000,,,,0.000000,4.000000,4.000000,4.000000,4.000000,4.000000,100.000000,,,,,,,,61.000000,0.000000,0.275065,0.587891,0.266846,-0.712402,0.981460,0.061524,-0.157229,-12.628385,6.129972,58.082787
1618378881.528561,123.000000,0.000000,4267.179688,4322.563965,4207.692383,4206.666504,4260.000000,16216.000000,3.000000,55.000000,,,,0.000000,4.000000,4.000000,4.000000,4.000000,4.000000,100.000000,,,,,,,,,,,,,,,,,,,
1618378881.536382,124.000000,0.000000,4258.461426,4302.563965,4202.051270,4201.025879,4252.820313,450.000000,3.000000,55.000000,,,,0.000000,4.000000,4.000000,4.000000,4.000000,4.000000,100.000000,,,,,,,,62.000000,0.000000,0.274097,0.588379,0.268066,-0.711914,0.999527,0.068360,-0.163577,-12.561853,8.926451,58.734570
1618378881.544204,125.000000,0.000000,4246.153809,4302.051270,4200.512695,4193.333496,4237.436035,450.000000,3.000000,55.000000,,,,0.000000,4.000000,4.000000,4.000000,4.000000,4.000000,100.000000,,,,,,,,,,,,,,,,,,,
1618378881.552025,126.000000,0.000000,4252.307617,4330.256348,4205.641113,4200.000000,4245.128418,450.000000,3.000000,55.000000,,,,0.000000,4.000000,4.000000,4.000000,4.000000,4.000000,100.000000,,,,,,,,63.000000,0.000000,0.274277,0.588623,0.269287,-0.711182,0.997574,0.064942,-0.152834,-12.681421,7.375836,59.261356
1618378881.559846,127.000000,0.000000,4270.256348,4322.563965,4204.102539,4201.025879,4265.641113,234.000000,3.000000,55.000000,,,,0.000000,4.000000,4.000000,4.000000,4.000000,4.000000,100.000000,1.000000,100.000000,4.000000,4.000000,4.000000,4.000000,4.000000,,,,,,,,,,,,
1618378881.567568,0.000000,0.000000,4282.051270,4303.589844,4197.436035,4204.102539,4263.077148,450.000000,3.000000,55.000000,,,,0.000000,4.000000,4.000000,4.000000,4.000000,4.000000,100.000000,,,,,,,,0.000000,0.000000,0.273926,0.589111,0.270508,-0.710449,0.999039,0.064942,-0.140627,-12.669402,9.928098,57.941002
1618378881.575389,1.000000,0.000000,4287.692383,4325.641113,4202.051270,4215.897461,4257.948730,450.000000,3.000000,55.000000,,,,0.000000,4.000000,4.000000,4.000000,4.000000,4.000000,100.000000,,,,,,,,,,,,,,,,,,,
1618378881.583210,2.000000,0.000000,4293.333496,4337.436035,4214.871582,4214.871582,4273.846191,16222.000000,3.000000,55.000000,,,,0.000000,4.000000,4.000000,4.000000,4.000000,4.000000,100.000000,,,,,,,,1.000000,0.000000,0.274097,0.588379,0.268066,-0.711914,0.999527,0.068360,-0.163577,-12.718400,12.165318,56.752686
1618378881.591031,3.000000,0.000000,4296.922852,4303.077148,4216.410156,4204.615234,4276.410156,450.000000,3.000000,55.000000,,,,0.000000,4.000000,4.000000,4.000000,4.000000,4.000000,100.000000,,,,,,,,,,,,,,,,,,,
1618378881.598852,4.000000,0.000000,4282.563965,4273.333496,4203.077148,4196.410156,4255.897461,16211.000000,3.000000,55.000000,,,,0.000000,4.000000,4.000000,4.000000,4.000000,4.000000,100.000000,,,,,,,,2.000000,0.000000,0.273926,0.589111,0.270508,-0.710449,0.999039,0.064942,-0.140627,-12.702682,14.238631,55.683201
1618378881.606673,5.000000,0.000000,4275.384766,4271.794922,4195.897461,4190.256348,4253.333496,450.000000,3.000000,55.000000,,,,0.000000,4.000000,4.000000,4.000000,4.000000,4.000000,100.000000,,,,,,,,,,,,,,,,,,,
1618378881.614494,6.000000,0.000000,4283.077148,4285.128418,4203.589844,4197.436035,4265.641113,16197.000000,3.000000,55.000000,,,,0.000000,4.000000,4.000000,4.000000,4.000000,4.000000,100.000000,,,,,,,,3.000000,0.000000,0.273700,0.589355,0.271484,-0.709961,0.997574,0.069337,-0.143557,-12.748352,16.044798,54.720665
1618378881.622315,7.000000,0.000000,4283.077148,4297.948730,4211.794922,4210.769043,4268.205078,450.000000,3.000000,55.000000,,,,0.000000,4.000000,4.000000,4.000000,4.000000,4.000000,100.000000,,,,,,,,,,,,,,,,,,,
1618378881.630136,8.000000,0.000000,4277.436035,4281.538574,4208.205078,4200.000000,4266.666504,450.000000,3.000000,55.000000,,,,0.000000,4.000000,4.000000,4.000000,4.000000,4.000000,100.000000,,,,,,,,4.000000,0.000000,0.273713,0.589600,0.272217,-0.709473,0.973648,0.066407,-0.134768,-12.789455,17.550716,53.794567
1618378881.637857,9.000000,0.000000,4275.384766,4256.922852,4204.102539,4181.538574,4262.051270,16213.000000,3.000000,55.000000,,,,0.000000,4.000000,4.000000,4.000000,4.000000,4.000000,100.000000,,,,,,,,,,,,,,,,,,,
1618378881.645678,10.000000,0.000000,4272.820313,4264.102539,4201.025879,4187.179688,4255.384766,450.000000,3.000000,55.000000,,,,0.000000,4.000000,4.000000,4.000000,4.000000,4.000000,100.000000,,,,,,,,5.000000,0.000000,0.273860,0.589600,0.272705,-0.709229,0.980484,0.060060,-0.133303,-12.826447,15.317122,54.815353
1618378881.653498,11.000000,0.000000,4258.974121,4277.948730,4192.307617,4195.384766,4249.743652,16232.000000,3.000000,55.000000,,,,0.000000,4.000000,4.000000,4.000000,4.000000,4.000000,100.000000,,,,,,,,,,,,,,,,,,,
1618378881.661319,12.000000,0.000000,4248.717773,4265.641113,4193.846191,4190.769043,4244.615234,450.000000,3.000000,55.000000,,,,0.000000,4.000000,4.000000,4.000000,4.000000,4.000000,100.000000,,,,,,,,6.000000,0.000000,0.274530,0.589355,0.273193,-0.708984,0.993667,0.049805,-0.145022,-12.859741,17.015440,53.939602
1618378881.669139,13.000000,0.000000,4250.256348,4249.743652,4205.641113,4188.205078,4243.077148,450.000000,3.000000,55.000000,,,,0.000000,4.000000,4.000000,4.000000,4.000000,4.000000,100.000000,,,,,,,,,,,,,,,,,,,
1618378881.676960,14.000000,0.000000,4248.717773,4253.846191,4205.128418,4190.769043,4244.102539,450.000000,3.000000,55.000000,,,,0.000000,4.000000,4.000000,4.000000,4.000000,4.000000,100.000000,,,,,,,,7.000000,0.000000,0.274043,0.589355,0.273682,-0.708984,0.994644,0.056153,-0.144533,-12.710258,14.655927,54.886070
1618378881.684781,15.000000,0.000000,4244.615234,4262.051270,4200.512695,4192.307617,4248.717773,16232.000000,3.000000,55.000000,,,,0.000000,4.000000,4.000000,4.000000,4.000000,4.000000,100.000000,,,,,,,,,,,,,,,,,,,
1618378881.692601,16.000000,0.000000,4243.589844,4249.743652,4201.538574,4188.205078,4250.256348,0.000000,3.000000,55.000000,,,,0.000000,4.000000,4.000000,4.000000,4.000000,4.000000,100.000000,,,,,,,,8.000000,0.000000,0.274848,0.588867,0.273926,-0.708984,0.991714,0.052735,-0.145510,-12.695355,12.651996,55.917336
1618378881.700422,17.000000,0.000000,4243.077148,4244.102539,4199.487305,4185.128418,4242.563965,0.000000,3.000000,55.000000,,,,0.000000,4.000000,4.000000,4.000000,4.000000,4.000000,100.000000,,,,,,,,,,,,,,,,,,,
1618378881.708143,18.000000,0.000000,4241.025879,4266.153809,4196.410156,4177.436035,4233.846191,0.000000,3.000000,55.000000,,,,0.000000,4.000000,4.000000,4.000000,4.000000,4.000000,100.000000,,,,,,,,9.000000,0.000000,0.274884,0.588623,0.274414,-0.708984,0.992203,0.071290,-0.147463,-12.861389,10.908274,56.725849
1618378881.715964,19.000000,0.000000,4242.563965,4276.410156,4197.948730,4168.717773,4233.333496,0.000000,3.000000,55.000000,,,,0.000000,4.000000,4.000000,4.000000,4.000000,4.000000,100.000000,,,,,,,,,,,,,,,,,,,
1618378881.723784,20.000000,0.000000,4246.666504,4267.179688,4201.025879,4181.025879,4240.512695,0.000000,3.000000,55.000000,,,,0.000000,4.000000,4.000000,4.000000,4.000000,4.000000,100.000000,,,,,,,,10.000000,0.000000,0.274811,0.588135,0.274902,-0.709229,0.976577,0.070802,-0.153811,-12.711742,9.099662,57.453506
1618378881.731605,21.000000,0.000000,4252.307617,4268.717773,4202.051270,4196.410156,4243.589844,0.000000,3.000000,55.000000,,,,0.000000,4.000000,4.000000,4.000000,4.000000,4.000000,100.000000,,,,,,,,,,,,,,,,,,,
1618378881.739426,22.000000,0.000000,4257.948730,4254.358887,4199.487305,4186.153809,4245.128418,0.000000,3.000000,55.000000,,,,0.000000,4.000000,4.000000,4.000000,4.000000,4.000000,100.000000,,,,,,,,11.000000,0.000000,0.275610,0.587646,0.275146,-0.709229,0.987320,0.062013,-0.144533,-12.636875,7.591542,58.048584
1618378881.747247,23.000000,0.000000,4263.077148,4242.563965,4196.410156,4179.487305,4252.820313,0.000000,3.000000,55.000000,,,,0.000000,4.000000,4.000000,4.000000,4.000000,4.000000,100.000000,,,,,,,,,,,,,,,,,,,
1618378881.755068,24.000000,0.000000,4269.743652,4261.025879,4197.436035,4192.820313,4260.512695,0.000000,3.000000,55.000000,,,,0.000000,4.000000,4.000000,4.000000,4.000000,4.000000,100.000000,,,,,,,,12.000000,0.000000,0.275535,0.587158,0.275635,-0.709473,0.994644,0.075196,-0.160159,-12.748941,6.234234,58.643970
1618378881.762889,25.000000,0.000000,4274.871582,4260.000000,4203.589844,4194.358887,4258.974121,0.000000,3.000000,55.000000,,,,0.000000,4.000000,4.000000,4.000000,4.000000,4.000000,100.000000,,,,,,,,,,,,,,,,,,,
1618378881.770710,26.000000,0.000000,4274.358887,4244.615234,4207.692383,4187.692383,4263.077148,0.000000,3.000000,55.000000,,,,0.000000,4.000000,4.000000,4.000000,4.000000,4.000000,100.000000,,,,,,,,13.000000,0.000000,0.275072,0.586670,0.275879,-0.709961,0.985855,0.062501,-0.157229,-12.730169,8.840840,57.385357
1618378881.778431,27.000000,0.000000,4272.307617,4262.563965,4200.000000,4189.230957,4275.384766,0.000000,3.000000,55.000000,,,,0.000000,4.000000,4.000000,4.000000,4.000000,4.000000,100.000000,,,,,,,,,,,,,,,,,,,
1618378881.786251,28.000000,0.000000,4266.153809,4268.717773,4183.077148,4172.820313,4267.692383,0.000000,3.000000,55.000000,,,,0.000000,4.000000,4.000000,4.000000,4.000000,4.000000,100.000000,,,,,,,,14.000000,0.000000,0.275238,0.586182,0.276123,-0.710205,0.992203,0.067872,-0.179690,-12.773090,11.186786,58.226513
1618378881.794072,29.000000,0.000000,4254.871582,4247.179688,4174.871582,4159.487305,4249.743652,0.000000,3.000000,55.000000,,,,0.000000,4.000000,4.000000,4.000000,4.000000,4.000000,100.000000,,,,,,,,,,,,,,,,,,,
1618378881.801893,30.000000,0.000000,4245.128418,4240.512695,4172.307617,4161.538574,4242.051270,0.000000,3.000000,55.000000,,,,0.000000,4.000000,4.000000,4.000000,4.000000,4.000000,100.000000,,,,,,,,15.000000,0.000000,0.275017,0.585693,0.276123,-0.710693,0.982437,0.053712,-0.175784,-12.871535,9.469954,58.804104
1618378881.809714,31.000000,0.000000,4243.589844,4238.974121,4170.256348,4166.153809,4239.487305,0.000000,3.000000,55.000000,,,,0.000000,4.000000,4.000000,4.000000,4.000000,4.000000,100.000000,,,,,,,,,,,,,,,,,,,
1618378881.817535,32.000000,0.000000,4253.333496,4239.487305,4177.436035,4176.410156,4237.948730,0.000000,3.000000,55.000000,,,,0.000000,4.000000,4.000000,4.000000,4.000000,4.000000,100.000000,,,,,,,,16.000000,0.000000,0.274273,0.585449,0.276123,-0.711182,0.988785,0.066896,-0.183108,-12.900319,7.805174,59.383755
1618378881.825356,33.000000,0.000000,4257.948730,4247.692383,4184.615234,4183.077148,4241.025879,0.000000,3.000000,55.000000,,,,0.000000,4.000000,4.000000,4.000000,4.000000,4.000000,100.000000,,,,,,,,,,,,,,,,,,,
1618378881.833176,34.000000,0.000000,4250.769043,4247.692383,4180.000000,4176.922852,4246.153809,0.000000,3.000000,55.000000,,,,0.000000,4.000000,4.000000,4.000000,4.000000,4.000000,100.000000,,,,,,,,17.000000,0.000000,0.274294,0.584961,0.275879,-0.711670,0.995132,0.072755,-0.183597,-12.926226,6.426503,59.905437
1618378881.840997,35.000000,0.000000,4252.820313,4257.948730,4179.487305,4170.769043,4254.358887,0.000000,3.000000,55.000000,,,,0.000000,4.000000,4.000000,4.000000,4.000000,4.000000,100.000000,,,,,,,,,,,,,,,,,,,
1618378881.848718,36.000000,0.000000,4258.461426,4275.384766,4186.153809,4177.948730,4257.436035,0.000000,3.000000,55.000000,,,,0.000000,4.000000,4.000000,4.000000,4.000000,4.000000,100.000000,,,,,,,,18.000000,0.000000,0.273906,0.584961,0.275635,-0.711914,0.992691,0.074220,-0.175784,-12.949541,5.305330,60.374954
1618378881.856540,37.000000,0.000000,4245.641113,4262.563965,4182.563965,4167.692383,4242.563965,0.000000,3.000000,55.000000,,,,0.000000,4.000000,4.000000,4.000000,4.000000,4.000000,100.000000,,,,,,,,,,,,,,,,,,,
1618378881.864361,38.000000,0.000000,4237.436035,4243.589844,4176.922852,4150.256348,4237.436035,0.000000,3.000000,55.000000,,,,0.000000,4.000000,4.000000,4.000000,4.000000,4.000000,100.000000,,,,,,,,19.000000,0.000000,0.274038,0.584717,0.275391,-0.712158,0.997574,0.075685,-0.162112,-12.970525,8.064642,60.737701
1618378881.872182,39.000000,0.000000,4248.717773,4260.512695,4184.615234,4172.307617,4252.820313,0.000000,3.000000,55.000000,,,,0.000000,4.000000,4.000000,4.000000,4.000000,4.000000,100.000000,,,,,,,,,,,,,,,,,,,
1618378881.880003,40.000000,0.000000,4245.641113,4280.000000,4192.820313,4196.410156,4248.717773,0.000000,3.000000,55.000000,,,,0.000000,4.000000,4.000000,4.000000,4.000000,4.000000,100.000000,,,,,,,,20.000000,0.000000,0.273258,0.584717,0.274902,-0.712646,0.987320,0.075196,-0.179690,-12.750149,10.548023,61.183807
1618378881.887824,41.000000,0.000000,4234.358887,4273.846191,4190.256348,4186.153809,4233.846191,0.000000,3.000000,55.000000,,,,0.000000,4.000000,4.000000,4.000000,4.000000,4.000000,100.000000,,,,,,,,,,,,,,,,,,,
1618378881.895645,42.000000,0.000000,4242.563965,4260.512695,4188.717773,4178.974121,4243.589844,0.000000,3.000000,55.000000,,,,0.000000,4.000000,4.000000,4.000000,4.000000,4.000000,100.000000,,,,,,,,21.000000,0.000000,0.273112,0.584717,0.274414,-0.712891,0.976089,0.068849,-0.185061,-12.731256,8.895067,61.704933
1618378881.903466,43.000000,0.000000,4247.692383,4258.461426,4197.436035,4191.282227,4253.333496,0.000000,3.000000,55.000000,,,,0.000000,4.000000,4.000000,4.000000,4.000000,4.000000,100.000000,,,,,,,,,,,,,,,,,,,
1618378881.911287,44.000000,0.000000,4239.487305,4267.179688,4199.487305,4190.769043,4238.461426,0.000000,3.000000,55.000000,,,,0.000000,4.000000,4.000000,4.000000,4.000000,4.000000,100.000000,,,,,,,,22.000000,0.000000,0.272965,0.584717,0.273926,-0.713135,0.996597,0.074220,-0.178225,-12.714254,7.467222,62.054314
1618378881.919008,45.000000,0.000000,4243.077148,4274.358887,4193.333496,4189.230957,4233.333496,0.000000,3.000000,55.000000,,,,0.000000,4.000000,4.000000,4.000000,4.000000,4.000000,100.000000,,,,,,,,,,,,,,,,,,,
1618378881.926828,46.000000,0.000000,4251.282227,4274.871582,4191.794922,4199.487305,4244.615234,0.000000,3.000000,55.000000,,,,0.000000,4.000000,4.000000,4.000000,4.000000,4.000000,100.000000,,,,,,,,23.000000,0.000000,0.273061,0.584717,0.273193,-0.713379,0.984390,0.087404,-0.182620,-12.698951,6.182161,62.308941
1618378881.934649,47.000000,0.000000,4238.461426,4262.051270,4184.615234,4188.717773,4240.512695,0.000000,3.000000,55.000000,,,,0.000000,4.000000,4.000000,4.000000,4.000000,4.000000,100.000000,,,,,,,,,,,,,,,,,,,
1618378881.942470,48.000000,0.000000,4216.410156,4250.256348,4167.179688,4165.128418,4221.025879,0.000000,3.000000,55.000000,,,,0.000000,4.000000,4.000000,4.000000,4.000000,4.000000,100.000000,,,,,,,,24.000000,0.000000,0.273548,0.584717,0.272705,-0.713379,0.998550,0.079103,-0.175784,-12.744994,4.905976,62.478291
1618378881.950290,49.000000,0.000000,4210.256348,4260.000000,4165.128418,4161.538574,4211.794922,0.000000,3.000000,55.000000,,,,0.000000,4.000000,4.000000,4.000000,4.000000,4.000000,100.000000,,,,,,,,,,,,,,,,,,,
1618378881.958111,50.000000,0.000000,4228.205078,4283.077148,4188.717773,4182.563965,4233.846191,0.000000,3.000000,55.000000,,,,0.000000,4.000000,4.000000,4.000000,4.000000,4.000000,100.000000,,,,,,,,25.000000,0.000000,0.273398,0.584717,0.272217,-0.713623,0.985855,0.070314,-0.181643,-12.726618,3.757410,62.690521
1618378881.965931,51.000000,0.000000,4255.384766,4295.897461,4207.692383,4204.102539,4270.256348,0.000000,3.000000,55.000000,,,,0.000000,4.000000,4.000000,4.000000,4.000000,4.000000,100.000000,,,,,,,,,,,,,,,,,,,
1618378881.973654,52.000000,0.000000,4264.102539,4286.666504,4209.230957,4206.666504,4280.000000,0.000000,3.000000,55.000000,,,,0.000000,4.000000,4.000000,4.000000,4.000000,4.000000,100.000000,,,,,,,,26.000000,0.000000,0.273641,0.584717,0.271973,-0.713623,0.991714,0.074220,-0.177737,-12.889524,6.611699,61.027252
1618378881.981476,53.000000,0.000000,4252.307617,4272.820313,4206.153809,4193.333496,4263.077148,0.000000,3.000000,55.000000,,,,0.000000,4.000000,4.000000,4.000000,4.000000,4.000000,100.000000,,,,,,,,,,,,,,,,,,,
1618378881.989298,54.000000,0.000000,4245.128418,4274.358887,4208.717773,4192.820313,4252.820313,0.000000,3.000000,55.000000,,,,0.000000,4.000000,4.000000,4.000000,4.000000,4.000000,100.000000,,,,,,,,27.000000,0.000000,0.274367,0.584717,0.271240,-0.713623,0.984390,0.070314,-0.190921,-12.916510,5.591636,61.564034
1618378881.997120,55.000000,0.000000,4252.307617,4286.153809,4215.897461,4197.948730,4255.897461,0.000000,3.000000,55.000000,,,,0.000000,4.000000,4.000000,4.000000,4.000000,4.000000,100.000000,,,,,,,,,,,,,,,,,,,
1618378882.004942,56.000000,0.000000,4258.461426,4279.487305,4216.410156,4178.461426,4257.436035,0.000000,3.000000,55.000000,,,,0.000000,4.000000,4.000000,4.000000,4.000000,4.000000,100.000000,,,,,,,,28.000000,0.000000,0.274608,0.584717,0.270996,-0.713623,0.991714,0.063478,-0.186526,-12.940797,4.553950,61.987320
1618378882.012764,57.000000,0.000000,4252.307617,4266.153809,4206.666504,4167.179688,4252.307617,0.000000,3.000000,55.000000,,,,0.000000,4.000000,4.000000,4.000000,4.000000,4.000000,100.000000,,,,,,,,,,,,,,,,,,,
1618378882.020586,58.000000,0.000000,4244.102539,4270.256348,4202.563965,4184.615234,4243.589844,0.000000,3.000000,55.000000,,,,0.000000,4.000000,4.000000,4.000000,4.000000,4.000000,100.000000,,,,,,,,29.000000,0.000000,0.275089,0.584717,0.270508,-0.713623,0.992203,0.045899,-0.178714,-12.902840,3.380770,60.454185
1618378882.028408,59.000000,0.000000,4248.205078,4283.077148,4208.717773,4196.922852,4245.641113,0.000000,3.000000,55.000000,,,,0.000000,4.000000,4.000000,4.000000,4.000000,4.000000,100.000000,,,,,,,,,,,,,,,,,,,
1618378882.036230,60.000000,0.000000,4261.538574,4295.384766,4213.333496,4194.871582,4257.436035,0.000000,3.000000,55.000000,,,,0.000000,4.000000,4.000000,4.000000,4.000000,4.000000,100.000000,,,,,,,,30.000000,0.000000,0.274810,0.584961,0.270264,-0.713623,0.990250,0.057618,-0.173342,-12.928494,2.504355,59.074368
1618378882.044052,61.000000,0.000000,4267.179688,4290.256348,4212.820313,4192.820313,4257.948730,0.000000,3.000000,55.000000,,,,0.000000,4.000000,4.000000,4.000000,4.000000,4.000000,100.000000,,,,,,,,,,,,,,,,,,,
1618378882.051774,62.000000,0.000000,4263.077148,4271.794922,4213.846191,4186.666504,4250.769043,0.000000,3.000000,55.000000,,,,0.000000,4.000000,4.000000,4.000000,4.000000,4.000000,100.000000,,,,,,,,31.000000,0.000000,0.275050,0.584961,0.270020,-0.713623,0.997086,0.036622,-0.185550,-13.131029,1.595951,59.686806
1618378882.059595,63.000000,0.000000,4269.230957,4273.333496,4208.717773,4180.512695,4260.512695,0.000000,3.000000,55.000000,,,,0.000000,4.000000,4.000000,4.000000,4.000000,4.000000,100.000000,1.000000,100.000000,4.000000,4.000000,4.000000,4.000000,4.000000,,,,,,,,,,,,
1618378882.067417,64.000000,0.000000,4295.384766,4290.256348,4197.436035,4190.256348,4282.051270,450.000000,3.000000,55.000000,,,,0.000000,4.000000,4.000000,4.000000,4.000000,4.000000,100.000000,,,,,,,,32.000000,0.000000,0.275089,0.584717,0.270508,-0.713623,0.992203,0.045899,-0.178714,-13.193680,4.726201,58.204277
1618378882.075238,65.000000,0.000000,4322.563965,4293.333496,4196.922852,4189.743652,4298.974121,450.000000,3.000000,55.000000,,,,0.000000,4.000000,4.000000,4.000000,4.000000,4.000000,100.000000,,,,,,,,,,,,,,,,,,,
1618378882.083060,66.000000,0.000000,4345.128418,4286.666504,4207.692383,4174.871582,4314.358887,16232.000000,3.000000,55.000000,,,,0.000000,4.000000,4.000000,4.000000,4.000000,4.000000,100.000000,,,,,,,,33.000000,0.000000,0.275050,0.584961,0.270020,-0.713623,0.997086,0.036622,-0.185550,-13.369696,3.595612,58.903725
1618378882.090881,67.000000,0.000000,4372.307617,4299.487305,4209.743652,4178.461426,4335.384766,450.000000,3.000000,55.000000,,,,0.000000,4.000000,4.000000,4.000000,4.000000,4.000000,100.000000,,,,,,,,,,,,,,,,,,,
1618378882.098703,68.000000,0.000000,4395.897461,4312.820313,4203.077148,4198.461426,4354.871582,16216.000000,3.000000,55.000000,,,,0.000000,4.000000,4.000000,4.000000,4.000000,4.000000,100.000000,,,,,,,,34.000000,0.000000,0.275403,0.585205,0.269775,-0.713379,1.000992,0.052247,-0.186526,-13.288849,2.518266,59.533226
1618378882.106525,69.000000,0.000000,4411.282227,4302.051270,4205.128418,4203.077148,4361.538574,450.000000,3.000000,55.000000,,,,0.000000,4.000000,4.000000,4.000000,4.000000,4.000000,100.000000,,,,,,,,,,,,,,,,,,,
1618378882.114346,70.000000,0.000000,4427.179688,4291.282227,4214.871582,4201.025879,4366.666504,16218.000000,3.000000,55.000000,,,,0.000000,4.000000,4.000000,4.000000,4.000000,4.000000,100.000000,,,,,,,,35.000000,0.000000,0.275123,0.585449,0.269531,-0.713379,0.986831,0.042969,-0.184573,-13.156271,5.436654,58.245502
1618378882.122063,71.000000,0.000000,4438.974121,4302.563965,4216.922852,4207.179688,4375.897461,450.000000,3.000000,55.000000,,,,0.000000,4.000000,4.000000,4.000000,4.000000,4.000000,100.000000,,,,,,,,,,,,,,,,,,,
1618378882.129881,72.000000,0.000000,4432.820313,4315.384766,4213.846191,4203.077148,4372.820313,450.000000,3.000000,55.000000,,,,0.000000,4.000000,4.000000,4.000000,4.000000,4.000000,100.000000,,,,,,,,36.000000,0.000000,0.274603,0.585693,0.269531,-0.713379,0.988296,0.054688,-0.181643,-13.156582,4.354650,58.940826
1618378882.137600,73.000000,0.000000,4420.512695,4303.077148,4216.410156,4199.487305,4359.487305,16237.000000,3.000000,55.000000,,,,0.000000,4.000000,4.000000,4.000000,4.000000,4.000000,100.000000,,,,,,,,,,,,,,,,,,,
1618378882.145420,74.000000,0.000000,4414.871582,4294.871582,4217.948730,4214.871582,4360.512695,450.000000,3.000000,55.000000,,,,0.000000,4.000000,4.000000,4.000000,4.000000,4.000000,100.000000,,,,,,,,37.000000,0.000000,0.275475,0.585693,0.269287,-0.713135,0.986831,0.044434,-0.181155,-13.037231,7.149215,57.652527
1618378882.153240,75.000000,0.000000,4403.077148,4304.615234,4208.717773,4211.282227,4359.487305,16218.000000,3.000000,55.000000,,,,0.000000,4.000000,4.000000,4.000000,4.000000,4.000000,100.000000,,,,,,,,,,,,,,,,,,,
1618378882.161059,76.000000,0.000000,4380.512695,4311.282227,4200.000000,4193.333496,4336.922852,450.000000,3.000000,55.000000,,,,0.000000,4.000000,4.000000,4.000000,4.000000,4.000000,100.000000,,,,,,,,38.000000,0.000000,0.274716,0.585938,0.269531,-0.713135,0.974136,0.064942,-0.184085,-12.989631,5.836140,58.347336
1618378882.168879,77.000000,0.000000,4362.563965,4308.717773,4196.410156,4197.948730,4320.000000,450.000000,3.000000,55.000000,,,,0.000000,4.000000,4.000000,4.000000,4.000000,4.000000,100.000000,,,,,,,,,,,,,,,,,,,
1618378882.176699,78.000000,0.000000,4351.282227,4289.230957,4193.846191,4209.743652,4316.410156,450.000000,3.000000,55.000000,,,,0.000000,4.000000,4.000000,4.000000,4.000000,4.000000,100.000000,,,,,,,,39.000000,0.000000,0.274829,0.586182,0.269531,-0.712891,0.991226,0.055177,-0.179690,-13.006606,8.542371,57.238014
1618378882.184420,79.000000,0.000000,4342.563965,4269.743652,4200.512695,4209.230957,4310.256348,16218.000000,3.000000,55.000000,,,,0.000000,4.000000,4.000000,4.000000,4.000000,4.000000,100.000000,,,,,,,,,,,,,,,,,,,
1618378882.192241,80.000000,0.000000,4334.871582,4284.615234,4207.692383,4205.128418,4305.128418,450.000000,3.000000,55.000000,,,,0.000000,4.000000,4.000000,4.000000,4.000000,4.000000,100.000000,,,,,,,,40.000000,0.000000,0.274589,0.586182,0.269775,-0.712891,0.975113,0.056641,-0.166506,-12.962068,7.030165,56.239628
1618378882.200062,81.000000,0.000000,4322.563965,4303.077148,4196.410156,4201.538574,4301.025879,450.000000,3.000000,55.000000,,,,0.000000,4.000000,4.000000,4.000000,4.000000,4.000000,100.000000,,,,,,,,,,,,,,,,,,,
1618378882.207883,82.000000,0.000000,4312.307617,4283.077148,4182.563965,4200.512695,4287.179688,450.000000,3.000000,55.000000,,,,0.000000,4.000000,4.000000,4.000000,4.000000,4.000000,100.000000,,,,,,,,41.000000,0.000000,0.274983,0.586182,0.270020,-0.712646,0.991714,0.062013,-0.170413,-13.101430,5.848625,57.075726
1618378882.215704,83.000000,0.000000,4315.897461,4274.358887,4192.820313,4207.179688,4278.974121,16218.000000,3.000000,55.000000,,,,0.000000,4.000000,4.000000,4.000000,4.000000,4.000000,100.000000,,,,,,,,,,,,,,,,,,,
1618378882.223525,84.000000,0.000000,4320.000000,4289.230957,4206.666504,4216.410156,4290.256348,450.000000,3.000000,55.000000,,,,0.000000,4.000000,4.000000,4.000000,4.000000,4.000000,100.000000,,,,,,,,42.000000,0.000000,0.275135,0.586182,0.270508,-0.712402,0.991226,0.053712,-0.181643,-12.987595,8.553608,57.828213
1618378882.231346,85.000000,0.000000,4310.256348,4275.897461,4201.025879,4222.051270,4298.461426,450.000000,3.000000,55.000000,,,,0.000000,4.000000,4.000000,4.000000,4.000000,4.000000,100.000000,,,,,,,,,,,,,,,,,,,
1618378882.239168,86.000000,0.000000,4297.948730,4260.000000,4190.769043,4210.256348,4284.615234,450.000000,3.000000,55.000000,,,,0.000000,4.000000,4.000000,4.000000,4.000000,4.000000,100.000000,,,,,,,,43.000000,0.000000,0.274133,0.586426,0.270996,-0.712402,0.987808,0.060548,-0.169436,-12.944958,7.159909,58.505451
1618378882.246989,87.000000,0.000000,4292.307617,4271.282227,4189.230957,4190.256348,4274.358887,16218.000000,3.000000,55.000000,,,,0.000000,4.000000,4.000000,4.000000,4.000000,4.000000,100.000000,,,,,,,,,,,,,,,,,,,
1618378882.254709,88.000000,0.000000,4293.846191,4282.563965,4204.615234,4210.769043,4282.563965,450.000000,3.000000,55.000000,,,,0.000000,4.000000,4.000000,4.000000,4.000000,4.000000,100.000000,,,,,,,,44.000000,0.000000,0.274917,0.586426,0.271484,-0.711914,0.990738,0.062013,-0.167971,-12.846769,9.614132,57.320503
1618378882.262529,89.000000,0.000000,4295.384766,4276.922852,4221.538574,4245.641113,4287.179688,450.000000,3.000000,55.000000,,,,0.000000,4.000000,4.000000,4.000000,4.000000,4.000000,100.000000,,,,,,,,,,,,,,,,,,,
1618378882.270350,90.000000,0.000000,4288.717773,4262.563965,4219.487305,4235.384766,4280.000000,450.000000,3.000000,55.000000,,,,0.000000,4.000000,4.000000,4.000000,4.000000,4.000000,100.000000,,,,,,,,45.000000,0.000000,0.275067,0.586426,0.271973,-0.711670,0.986343,0.069337,-0.165530,-12.758399,7.994750,58.108326
1618378882.278170,91.000000,0.000000,4282.563965,4257.948730,4211.282227,4210.769043,4276.410156,16218.000000,3.000000,55.000000,,,,0.000000,4.000000,4.000000,4.000000,4.000000,4.000000,100.000000,,,,,,,,,,,,,,,,,,,
1618378882.285991,92.000000,0.000000,4283.589844,4276.922852,4209.230957,4214.358887,4277.948730,450.000000,3.000000,55.000000,,,,0.000000,4.000000,4.000000,4.000000,4.000000,4.000000,100.000000,,,,,,,,46.000000,0.000000,0.274583,0.586426,0.272461,-0.711670,0.987320,0.061036,-0.165042,-12.846549,5.285422,59.335876
1618378882.293714,93.000000,0.000000,4280.000000,4287.179688,4206.153809,4220.512695,4273.333496,450.000000,3.000000,55.000000,,,,0.000000,4.000000,4.000000,4.000000,4.000000,4.000000,100.000000,,,,,,,,,,,,,,,,,,,
1618378882.301537,94.000000,0.000000,4266.666504,4269.230957,4205.128418,4215.384766,4261.025879,450.000000,3.000000,55.000000,,,,0.000000,4.000000,4.000000,4.000000,4.000000,4.000000,100.000000,,,,,,,,47.000000,0.000000,0.275362,0.586426,0.272949,-0.711182,1.006363,0.059083,-0.165530,-12.877832,7.986909,57.948257
1618378882.309360,95.000000,0.000000,4260.512695,4264.615234,4210.256348,4209.230957,4246.666504,16218.000000,3.000000,55.000000,,,,0.000000,4.000000,4.000000,4.000000,4.000000,4.000000,100.000000,,,,,,,,,,,,,,,,,,,
1618378882.317184,96.000000,0.000000,4262.051270,4281.025879,4206.666504,4208.717773,4241.538574,450.000000,3.000000,55.000000,,,,0.000000,4.000000,4.000000,4.000000,4.000000,4.000000,100.000000,,,,,,,,48.000000,0.000000,0.275230,0.586670,0.273193,-0.710938,0.989761,0.051759,-0.161624,-12.846171,6.649880,58.733120
1618378882.325007,97.000000,0.000000,4257.948730,4273.846191,4194.358887,4212.820313,4245.128418,450.000000,3.000000,55.000000,,,,0.000000,4.000000,4.000000,4.000000,4.000000,4.000000,100.000000,,,,,,,,,,,,,,,,,,,
1618378882.332830,98.000000,0.000000,4255.897461,4251.282227,4195.384766,4204.102539,4246.666504,450.000000,3.000000,55.000000,,,,0.000000,4.000000,4.000000,4.000000,4.000000,4.000000,100.000000,,,,,,,,49.000000,0.000000,0.274988,0.586670,0.273438,-0.710938,0.996109,0.055177,-0.164065,-12.937307,5.386738,59.319870
1618378882.340653,99.000000,0.000000,4261.025879,4264.615234,4208.205078,4196.410156,4245.128418,16218.000000,3.000000,55.000000,,,,0.000000,4.000000,4.000000,4.000000,4.000000,4.000000,100.000000,,,,,,,,,,,,,,,,,,,
1618378882.348476,100.000000,0.000000,4262.051270,4288.717773,4210.256348,4206.153809,4241.025879,450.000000,3.000000,55.000000,,,,0.000000,4.000000,4.000000,4.000000,4.000000,4.000000,100.000000,,,,,,,,50.000000,0.000000,0.275133,0.586670,0.273926,-0.710693,0.992203,0.073732,-0.157229,-13.019330,4.130280,59.847942
1618378882.356300,101.000000,0.000000,4254.871582,4271.794922,4202.051270,4212.307617,4239.487305,450.000000,3.000000,55.000000,,,,0.000000,4.000000,4.000000,4.000000,4.000000,4.000000,100.000000,,,,,,,,,,,,,,,,,,,
1618378882.364123,102.000000,0.000000,4253.846191,4254.871582,4195.384766,4208.205078,4239.487305,450.000000,3.000000,55.000000,,,,0.000000,4.000000,4.000000,4.000000,4.000000,4.000000,100.000000,,,,,,,,51.000000,0.000000,0.275133,0.586670,0.273926,-0.710693,0.993179,0.066407,-0.153811,-13.033336,6.947282,58.229668
1618378882.371846,103.000000,0.000000,4263.077148,4267.179688,4194.871582,4210.769043,4243.077148,16218.000000,3.000000,55.000000,,,,0.000000,4.000000,4.000000,4.000000,4.000000,4.000000,100.000000,,,,,,,,,,,,,,,,,,,
1618378882.379669,104.000000,0.000000,4267.692383,4274.871582,4204.615234,4216.922852,4249.230957,450.000000,3.000000,55.000000,,,,0.000000,4.000000,4.000000,4.000000,4.000000,4.000000,100.000000,,,,,,,,52.000000,0.000000,0.274889,0.586670,0.274170,-0.710693,0.995132,0.067872,-0.164553,-12.926310,5.594585,59.106022
1618378882.387491,105.000000,0.000000,4260.512695,4260.512695,4216.922852,4215.897461,4250.256348,450.000000,3.000000,55.000000,,,,0.000000,4.000000,4.000000,4.000000,4.000000,4.000000,100.000000,,,,,,,,,,,,,,,,,,,
1618378882.395314,106.000000,0.000000,4255.384766,4244.615234,4220.512695,4217.436035,4249.230957,450.000000,3.000000,55.000000,,,,0.000000,4.000000,4.000000,4.000000,4.000000,4.000000,100.000000,,,,,,,,53.000000,0.000000,0.274889,0.586670,0.274170,-0.710693,1.007828,0.064942,-0.149416,-12.949616,4.496788,59.655479
1618378882.403137,107.000000,0.000000,4254.358887,4257.436035,4218.974121,4225.128418,4248.717773,16218.000000,3.000000,55.000000,,,,0.000000,4.000000,4.000000,4.000000,4.000000,4.000000,100.000000,,,,,,,,,,,,,,,,,,,
1618378882.410960,108.000000,0.000000,4248.717773,4276.922852,4218.974121,4221.538574,4245.128418,450.000000,3.000000,55.000000,,,,0.000000,4.000000,4.000000,4.000000,4.000000,4.000000,100.000000,,,,,,,,54.000000,0.000000,0.275167,0.586426,0.274414,-0.710693,0.984390,0.064454,-0.167483,-12.970592,3.508771,60.090176
1618378882.418782,109.000000,0.000000,4242.051270,4269.230957,4218.974121,4202.563965,4237.948730,450.000000,3.000000,55.000000,,,,0.000000,4.000000,4.000000,4.000000,4.000000,4.000000,100.000000,,,,,,,,,,,,,,,,,,,
1618378882.426605,110.000000,0.000000,4238.974121,4253.333496,4216.922852,4203.589844,4234.871582,450.000000,3.000000,55.000000,,,,0.000000,4.000000,4.000000,4.000000,4.000000,4.000000,100.000000,,,,,,,,55.000000,0.000000,0.275410,0.586426,0.274170,-0.710693,0.994644,0.069337,-0.161135,-12.929656,6.567369,58.507496
1618378882.434428,111.000000,0.000000,4239.487305,4253.333496,4210.769043,4228.205078,4236.410156,16218.000000,3.000000,55.000000,,,,0.000000,4.000000,4.000000,4.000000,4.000000,4.000000,100.000000,,,,,,,,,,,,,,,,,,,
1618378882.442151,112.000000,0.000000,4241.538574,4255.384766,4205.128418,4232.307617,4237.436035,450.000000,3.000000,55.000000,,,,0.000000,4.000000,4.000000,4.000000,4.000000,4.000000,100.000000,,,,,,,,56.000000,0.000000,0.275410,0.586426,0.274170,-0.710693,0.996597,0.073732,-0.164065,-12.892814,5.372294,59.116806
1618378882.449973,113.000000,0.000000,4243.589844,4250.769043,4209.230957,4214.871582,4238.974121,450.000000,3.000000,55.000000,,,,0.000000,4.000000,4.000000,4.000000,4.000000,4.000000,100.000000,,,,,,,,,,,,,,,,,,,
1618378882.457796,114.000000,0.000000,4244.102539,4255.897461,4213.333496,4205.641113,4236.922852,450.000000,3.000000,55.000000,,,,0.000000,4.000000,4.000000,4.000000,4.000000,4.000000,100.000000,,,,,,,,57.000000,0.000000,0.275167,0.586426,0.274414,-0.710693,0.988296,0.057130,-0.166018,-12.859654,3.997650,59.724998
1618378882.465619,115.000000,0.000000,4242.563965,4253.846191,4212.820313,4204.102539,4233.333496,16218.000000,3.000000,55.000000,,,,0.000000,4.000000,4.000000,4.000000,4.000000,4.000000,100.000000,,,,,,,,,,,,,,,,,,,
1618378882.473442,116.000000,0.000000,4238.461426,4244.615234,4210.256348,4200.000000,4230.256348,450.000000,3.000000,55.000000,,,,0.000000,4.000000,4.000000,4.000000,4.000000,4.000000,100.000000,,,,,,,,58.000000,0.000000,0.274779,0.586426,0.274170,-0.710938,0.984878,0.062501,-0.151369,-12.829812,6.708284,58.298470
1618378882.481264,117.000000,0.000000,4237.436035,4243.589844,4203.077148,4200.512695,4228.717773,450.000000,3.000000,55.000000,,,,0.000000,4.000000,4.000000,4.000000,4.000000,4.000000,100.000000,,,,,,,,,,,,,,,,,,,
1618378882.489087,118.000000,0.000000,4241.538574,4246.666504,4198.461426,4193.846191,4229.230957,450.000000,3.000000,55.000000,,,,0.000000,4.000000,4.000000,4.000000,4.000000,4.000000,100.000000,,,,,,,,59.000000,0.000000,0.274779,0.586426,0.274170,-0.710938,0.998062,0.056153,-0.160647,-12.802954,5.558933,58.928680
1618378882.496910,119.000000,0.000000,4244.102539,4254.358887,4203.077148,4177.948730,4231.794922,16218.000000,3.000000,55.000000,,,,0.000000,4.000000,4.000000,4.000000,4.000000,4.000000,100.000000,,,,,,,,,,,,,,,,,,,
1618378882.504733,120.000000,0.000000,4244.102539,4264.615234,4208.205078,4186.153809,4237.436035,450.000000,3.000000,55.000000,,,,0.000000,4.000000,4.000000,4.000000,4.000000,4.000000,100.000000,,,,,,,,60.000000,0.000000,0.274779,0.586426,0.274170,-0.710938,0.986343,0.059571,-0.164553,-12.778781,4.165624,59.555687
1618378882.512456,121.000000,0.000000,4242.051270,4261.025879,4209.230957,4212.820313,4241.025879,450.000000,3.000000,55.000000,,,,0.000000,4.000000,4.000000,4.000000,4.000000,4.000000,100.000000,,,,,,,,,,,,,,,,,,,
1618378882.520279,122.000000,0.000000,4242.051270,4249.230957,4212.307617,4220.512695,4240.512695,450.000000,3.000000,55.000000,,,,0.000000,4.000000,4.000000,4.000000,4.000000,4.000000,100.000000,,,,,,,,61.000000,0.000000,0.275022,0.586426,0.273926,-0.710938,0.982437,0.071778,-0.155764,-12.876656,3.091093,60.179810
1618378882.528102,123.000000,0.000000,4254.871582,4262.563965,4224.615234,4213.333496,4245.128418,16218.000000,3.000000,55.000000,,,,0.000000,4.000000,4.000000,4.000000,4.000000,4.000000,100.000000,,,,,,,,,,,,,,,,,,,
1618378882.535925,124.000000,0.000000,4266.153809,4281.025879,4233.333496,4215.897461,4252.307617,450.000000,3.000000,55.000000,,,,0.000000,4.000000,4.000000,4.000000,4.000000,4.000000,100.000000,,,,,,,,62.000000,0.000000,0.274668,0.586182,0.274170,-0.711182,0.993179,0.080079,-0.153323,-12.904928,6.071828,60.621887
1618378882.543748,125.000000,0.000000,4255.384766,4272.307617,4218.461426,4211.794922,4244.102539,450.000000,3.000000,55.000000,,,,0.000000,4.000000,4.000000,4.000000,4.000000,4.000000,100.000000,,,,,,,,,,,,,,,,,,,
1618378882.551571,126.000000,0.000000,4243.077148,4275.384766,4200.000000,4207.179688,4234.358887,450.000000,3.000000,55.000000,,,,0.000000,4.000000,4.000000,4.000000,4.000000,4.000000,100.000000,,,,,,,,63.000000,0.000000,0.274779,0.586426,0.274170,-0.710938,0.986343,0.059571,-0.164553,-12.810743,8.814306,59.105667
1618378882.559394,127.000000,0.000000,4253.846191,4290.769043,4206.153809,4222.051270,4246.153809,234.000000,3.000000,55.000000,,,,0.000000,4.000000,4.000000,4.000000,4.000000,4.000000,100.000000,1.000000,100.000000,4.000000,4.000000,4.000000,4.000000,4.000000,,,,,,,,,,,,
1618378882.567217,0.000000,0.000000,4257.436035,4277.436035,4213.333496,4230.256348,4250.256348,450.000000,3.000000,55.000000,,,,0.000000,4.000000,4.000000,4.000000,4.000000,4.000000,100.000000,,,,,,,,0.000000,0.000000,0.274668,0.586182,0.274170,-0.711182,0.993179,0.080079,-0.153323,-12.845607,11.222721,59.655159
1618378882.575040,1.000000,0.000000,4237.436035,4258.461426,4205.128418,4222.563965,4232.820313,450.000000,3.000000,55.000000,,,,0.000000,4.000000,4.000000,4.000000,4.000000,4.000000,100.000000,,,,,,,,,,,,,,,,,,,
1618378882.582863,2.000000,0.000000,4239.487305,4267.692383,4206.666504,4222.051270,4234.358887,16244.000000,3.000000,55.000000,,,,0.000000,4.000000,4.000000,4.000000,4.000000,4.000000,100.000000,,,,,,,,1.000000,0.000000,0.274912,0.586182,0.273926,-0.711182,0.987808,0.073732,-0.173342,-12.936799,9.502295,60.269333
1618378882.590585,3.000000,0.000000,4264.102539,4278.461426,4222.051270,4228.205078,4255.897461,450.000000,3.000000,55.000000,,,,0.000000,4.000000,4.000000,4.000000,4.000000,4.000000,100.000000,,,,,,,,,,,,,,,,,,,
1618378882.598408,4.000000,0.000000,4262.563965,4269.230957,4229.743652,4232.307617,4254.358887,16224.000000,3.000000,55.000000,,,,0.000000,4.000000,4.000000,4.000000,4.000000,4.000000,100.000000,,,,,,,,2.000000,0.000000,0.274800,0.585938,0.273926,-0.711426,0.992203,0.047852,-0.159182,-12.959058,11.722280,60.881905
1618378882.606230,5.000000,0.000000,4250.256348,4260.512695,4225.128418,4222.051270,4244.102539,450.000000,3.000000,55.000000,,,,0.000000,4.000000,4.000000,4.000000,4.000000,4.000000,100.000000,,,,,,,,,,,,,,,,,,,
1618378882.614053,6.000000,0.000000,4261.538574,4263.589844,4223.077148,4211.282227,4257.436035,16214.000000,3.000000,55.000000,,,,0.000000,4.000000,4.000000,4.000000,4.000000,4.000000,100.000000,,,,,,,,3.000000,0.000000,0.274800,0.585938,0.273926,-0.711426,0.985367,0.062501,-0.166995,-12.799644,13.720266,59.220051
1618378882.621875,7.000000,0.000000,4265.641113,4267.692383,4227.692383,4221.025879,4261.025879,450.000000,3.000000,55.000000,,,,0.000000,4.000000,4.000000,4.000000,4.000000,4.000000,100.000000,,,,,,,,,,,,,,,,,,,
1618378882.629698,8.000000,0.000000,4244.102539,4258.974121,4224.615234,4232.820313,4233.846191,450.000000,3.000000,55.000000,,,,0.000000,4.000000,4.000000,4.000000,4.000000,4.000000,100.000000,,,,,,,,4.000000,0.000000,0.274800,0.585938,0.273926,-0.711426,0.992203,0.061036,-0.161624,-12.715986,11.630455,59.877739
1618378882.637520,9.000000,0.000000,4231.794922,4252.307617,4215.897461,4229.230957,4224.615234,16232.000000,3.000000,55.000000,,,,0.000000,4.000000,4.000000,4.000000,4.000000,4.000000,100.000000,,,,,,,,,,,,,,,,,,,
1618378882.645343,10.000000,0.000000,4235.384766,4258.461426,4212.307617,4224.102539,4242.051270,450.000000,3.000000,55.000000,,,,0.000000,4.000000,4.000000,4.000000,4.000000,4.000000,100.000000,,,,,,,,5.000000,0.000000,0.274411,0.585938,0.273682,-0.711670,0.983413,0.057130,-0.169436,-12.700511,9.749625,60.409840
1618378882.653165,11.000000,0.000000,4237.436035,4258.974121,4207.692383,4220.512695,4244.615234,16219.000000,3.000000,55.000000,,,,0.000000,4.000000,4.000000,4.000000,4.000000,4.000000,100.000000,,,,,,,,,,,,,,,,,,,
1618378882.660888,12.000000,0.000000,4243.077148,4260.000000,4204.615234,4216.922852,4238.461426,450.000000,3.000000,55.000000,,,,0.000000,4.000000,4.000000,4.000000,4.000000,4.000000,100.000000,,,,,,,,6.000000,0.000000,0.274932,0.585693,0.273682,-0.711670,0.987320,0.066407,-0.167971,-12.746398,8.056878,60.888729
1618378882.668711,13.000000,0.000000,4249.230957,4264.102539,4207.179688,4217.948730,4247.692383,450.000000,3.000000,55.000000,,,,0.000000,4.000000,4.000000,4.000000,4.000000,4.000000,100.000000,,,,,,,,,,,,,,,,,,,
1618378882.676533,14.000000,0.000000,4241.538574,4248.205078,4203.589844,4216.922852,4252.307617,450.000000,3.000000,55.000000,,,,0.000000,4.000000,4.000000,4.000000,4.000000,4.000000,100.000000,,,,,,,,7.000000,0.000000,0.274299,0.585693,0.273682,-0.711914,0.984878,0.061524,-0.174319,-12.847511,6.533406,61.140285
1618378882.684356,15.000000,0.000000,4225.128418,4227.692383,4194.871582,4216.922852,4229.743652,16219.000000,3.000000,55.000000,,,,0.000000,4.000000,4.000000,4.000000,4.000000,4.000000,100.000000,,,,,,,,,,,,,,,,,,,
1618378882.692178,16.000000,0.000000,4214.871582,4236.922852,4191.794922,4213.846191,4211.794922,0.000000,3.000000,55.000000,,,,0.000000,4.000000,4.000000,4.000000,4.000000,4.000000,100.000000,,,,,,,,8.000000,0.000000,0.274299,0.585693,0.273682,-0.711914,0.991714,0.060060,-0.168460,-12.699252,5.222096,61.486317
1618378882.700001,17.000000,0.000000,4214.358887,4249.743652,4189.230957,4202.563965,4223.589844,0.000000,3.000000,55.000000,,,,0.000000,4.000000,4.000000,4.000000,4.000000,4.000000,100.000000,,,,,,,,,,,,,,,,,,,
1618378882.707823,18.000000,0.000000,4223.589844,4239.487305,4189.230957,4212.307617,4231.794922,0.000000,3.000000,55.000000,,,,0.000000,4.000000,4.000000,4.000000,4.000000,4.000000,100.000000,,,,,,,,9.000000,0.000000,0.275063,0.585449,0.273438,-0.711914,0.992203,0.068849,-0.176272,-12.864896,7.989732,59.883652
1618378882.715646,19.000000,0.000000,4236.410156,4239.487305,4200.000000,4232.307617,4226.666504,0.000000,3.000000,55.000000,,,,0.000000,4.000000,4.000000,4.000000,4.000000,4.000000,100.000000,,,,,,,,,,,,,,,,,,,
1618378882.723369,20.000000,0.000000,4240.000000,4260.000000,4214.358887,4227.179688,4233.846191,0.000000,3.000000,55.000000,,,,0.000000,4.000000,4.000000,4.000000,4.000000,4.000000,100.000000,,,,,,,,10.000000,0.000000,0.274430,0.585449,0.273438,-0.712158,0.998062,0.062013,-0.173342,-12.954160,6.712236,60.415161
1618378882.731192,21.000000,0.000000,4237.436035,4271.794922,4223.589844,4220.000000,4245.641113,0.000000,3.000000,55.000000,,,,0.000000,4.000000,4.000000,4.000000,4.000000,4.000000,100.000000,,,,,,,,,,,,,,,,,,,
1618378882.739015,22.000000,0.000000,4238.974121,4271.282227,4221.538574,4227.179688,4243.589844,0.000000,3.000000,55.000000,,,,0.000000,4.000000,4.000000,4.000000,4.000000,4.000000,100.000000,,,,,,,,11.000000,0.000000,0.274430,0.585449,0.273438,-0.712158,0.993179,0.058595,-0.172854,-13.094313,5.442859,60.893520
1618378882.746839,23.000000,0.000000,4240.000000,4262.563965,4210.256348,4222.051270,4239.487305,0.000000,3.000000,55.000000,,,,0.000000,4.000000,4.000000,4.000000,4.000000,4.000000,100.000000,,,,,,,,,,,,,,,,,,,
1618378882.754662,24.000000,0.000000,4237.436035,4248.717773,4206.666504,4212.820313,4240.000000,0.000000,3.000000,55.000000,,,,0.000000,4.000000,4.000000,4.000000,4.000000,4.000000,100.000000,,,,,,,,12.000000,0.000000,0.274430,0.585449,0.273438,-0.712158,0.999039,0.050782,-0.178225,-13.160635,4.240604,59.469769
1618378882.762485,25.000000,0.000000,4242.051270,4255.897461,4213.333496,4218.974121,4238.974121,0.000000,3.000000,55.000000,,,,0.000000,4.000000,4.000000,4.000000,4.000000,4.000000,100.000000,,,,,,,,,,,,,,,,,,,
1618378882.770308,26.000000,0.000000,4249.230957,4271.794922,4209.230957,4224.615234,4240.512695,0.000000,3.000000,55.000000,,,,0.000000,4.000000,4.000000,4.000000,4.000000,4.000000,100.000000,,,,,,,,13.000000,0.000000,0.274039,0.585449,0.273193,-0.712402,0.986343,0.074220,-0.175296,-13.160509,3.218390,60.042664
1618378882.778132,27.000000,0.000000,4247.692383,4264.615234,4193.846191,4220.512695,4245.128418,0.000000,3.000000,55.000000,,,,0.000000,4.000000,4.000000,4.000000,4.000000,4.000000,100.000000,,,,,,,,,,,,,,,,,,,
1618378882.785955,28.000000,0.000000,4241.538574,4260.000000,4191.794922,4216.922852,4246.666504,0.000000,3.000000,55.000000,,,,0.000000,4.000000,4.000000,4.000000,4.000000,4.000000,100.000000,,,,,,,,14.000000,0.000000,0.274039,0.585449,0.273193,-0.712402,0.994644,0.071778,-0.176272,-13.220212,2.298397,60.498459
1618378882.793678,29.000000,0.000000,4236.410156,4268.717773,4199.487305,4215.897461,4238.974121,0.000000,3.000000,55.000000,,,,0.000000,4.000000,4.000000,4.000000,4.000000,4.000000,100.000000,,,,,,,,,,,,,,,,,,,
1618378882.801502,30.000000,0.000000,4226.153809,4261.538574,4193.333496,4203.077148,4222.051270,0.000000,3.000000,55.000000,,,,0.000000,4.000000,4.000000,4.000000,4.000000,4.000000,100.000000,,,,,,,,15.000000,0.000000,0.274039,0.585449,0.273193,-0.712402,0.996597,0.061036,-0.179202,-13.154313,1.410588,61.088120
1618378882.809325,31.000000,0.000000,4207.179688,4242.051270,4174.871582,4183.589844,4204.615234,0.000000,3.000000,55.000000,,,,0.000000,4.000000,4.000000,4.000000,4.000000,4.000000,100.000000,,,,,,,,,,,,,,,,,,,
1618378882.817149,32.000000,0.000000,4203.077148,4236.410156,4172.820313,4183.589844,4206.666504,0.000000,3.000000,55.000000,,,,0.000000,4.000000,4.000000,4.000000,4.000000,4.000000,100.000000,,,,,,,,16.000000,0.000000,0.273796,0.585449,0.273438,-0.712402,0.979995,0.072755,-0.173342,-13.334266,4.320113,59.644905
1618378882.824972,33.000000,0.000000,4226.666504,4242.563965,4189.230957,4206.153809,4228.205078,0.000000,3.000000,55.000000,,,,0.000000,4.000000,4.000000,4.000000,4.000000,4.000000,100.000000,,,,,,,,,,,,,,,,,,,
1618378882.832796,34.000000,0.000000,4251.282227,4255.897461,4207.692383,4227.179688,4249.743652,0.000000,3.000000,55.000000,,,,0.000000,4.000000,4.000000,4.000000,4.000000,4.000000,100.000000,,,,,,,,17.000000,0.000000,0.273796,0.585449,0.273438,-0.712402,0.996109,0.064942,-0.173342,-13.496223,3.230133,60.200291
1618378882.840619,35.000000,0.000000,4254.358887,4270.256348,4215.897461,4217.436035,4252.307617,0.000000,3.000000,55.000000,,,,0.000000,4.000000,4.000000,4.000000,4.000000,4.000000,100.000000,,,,,,,,,,,,,,,,,,,
1618378882.848443,36.000000,0.000000,4249.230957,4272.307617,4211.794922,4203.589844,4241.025879,0.000000,3.000000,55.000000,,,,0.000000,4.000000,4.000000,4.000000,4.000000,4.000000,100.000000,,,,,,,,18.000000,0.000000,0.273796,0.585449,0.273438,-0.712402,0.982925,0.051759,-0.165042,-13.283093,6.077334,58.845860
1618378882.856266,37.000000,0.000000,4252.307617,4268.717773,4212.307617,4219.487305,4238.974121,0.000000,3.000000,55.000000,,,,0.000000,4.000000,4.000000,4.000000,4.000000,4.000000,100.000000,,,,,,,,,,,,,,,,,,,
1618378882.863989,38.000000,0.000000,4258.461426,4278.974121,4221.025879,4233.333496,4246.666504,0.000000,3.000000,55.000000,,,,0.000000,4.000000,4.000000,4.000000,4.000000,4.000000,100.000000,,,,,,,,19.000000,0.000000,0.273796,0.585449,0.273438,-0.712402,1.000015,0.057130,-0.171389,-13.450168,8.520185,57.327793
1618378882.871812,39.000000,0.000000,4256.922852,4284.102539,4223.077148,4218.461426,4245.128418,0.000000,3.000000,55.000000,,,,0.000000,4.000000,4.000000,4.000000,4.000000,4.000000,100.000000,,,,,,,,,,,,,,,,,,,
1618378882.879635,40.000000,0.000000,4253.846191,4277.436035,4219.487305,4215.897461,4240.000000,0.000000,3.000000,55.000000,,,,0.000000,4.000000,4.000000,4.000000,4.000000,4.000000,100.000000,,,,,,,,20.000000,0.000000,0.273552,0.585449,0.273682,-0.712402,0.982437,0.060548,-0.153811,-13.421089,7.189643,56.260612
1618378882.887458,41.000000,0.000000,4255.384766,4272.307617,4217.436035,4230.256348,4244.615234,0.000000,3.000000,55.000000,,,,0.000000,4.000000,4.000000,4.000000,4.000000,4.000000,100.000000,,,,,,,,,,,,,,,,,,,
1618378882.895281,42.000000,0.000000,4254.358887,4258.974121,4213.333496,4227.179688,4245.641113,0.000000,3.000000,55.000000,,,,0.000000,4.000000,4.000000,4.000000,4.000000,4.000000,100.000000,,,,,,,,21.000000,0.000000,0.273552,0.585449,0.273682,-0.712402,0.980484,0.066407,-0.182132,-13.454734,5.752894,57.214241
1618378882.903104,43.000000,0.000000,4250.769043,4260.512695,4214.358887,4217.948730,4241.538574,0.000000,3.000000,55.000000,,,,0.000000,4.000000,4.000000,4.000000,4.000000,4.000000,100.000000,,,,,,,,,,,,,,,,,,,
1618378882.910927,44.000000,0.000000,4261.538574,4289.743652,4222.563965,4217.948730,4251.282227,0.000000,3.000000,55.000000,,,,0.000000,4.000000,4.000000,4.000000,4.000000,4.000000,100.000000,,,,,,,,22.000000,0.000000,0.273943,0.585449,0.273926,-0.712158,1.002457,0.066407,-0.174319,-13.365383,4.519636,57.952877
1618378882.918750,45.000000,0.000000,4266.666504,4289.230957,4219.487305,4224.615234,4260.512695,0.000000,3.000000,55.000000,,,,0.000000,4.000000,4.000000,4.000000,4.000000,4.000000,100.000000,,,,,,,,,,,,,,,,,,,
1618378882.926573,46.000000,0.000000,4251.794922,4263.077148,4211.282227,4230.769043,4255.897461,0.000000,3.000000,55.000000,,,,0.000000,4.000000,4.000000,4.000000,4.000000,4.000000,100.000000,,,,,,,,23.000000,0.000000,0.273698,0.585449,0.274170,-0.712158,0.990738,0.070802,-0.164065,-13.225152,7.178071,56.703556
1618378882.934294,47.000000,0.000000,4255.384766,4270.769043,4209.230957,4220.512695,4257.948730,0.000000,3.000000,55.000000,,,,0.000000,4.000000,4.000000,4.000000,4.000000,4.000000,100.000000,,,,,,,,,,,,,,,,,,,
1618378882.942115,48.000000,0.000000,4270.769043,4284.102539,4205.128418,4207.692383,4263.077148,0.000000,3.000000,55.000000,,,,0.000000,4.000000,4.000000,4.000000,4.000000,4.000000,100.000000,,,,,,,,24.000000,0.000000,0.273566,0.585693,0.274414,-0.711914,0.983902,0.066407,-0.163088,-13.278390,5.742480,57.553078
1618378882.949936,49.000000,0.000000,4266.153809,4281.025879,4206.666504,4213.333496,4259.487305,0.000000,3.000000,55.000000,,,,0.000000,4.000000,4.000000,4.000000,4.000000,4.000000,100.000000,,,,,,,,,,,,,,,,,,,
1618378882.957758,50.000000,0.000000,4263.589844,4274.871582,4214.871582,4217.436035,4258.974121,0.000000,3.000000,55.000000,,,,0.000000,4.000000,4.000000,4.000000,4.000000,4.000000,100.000000,,,,,,,,25.000000,0.000000,0.273566,0.585693,0.274414,-0.711914,0.989273,0.057130,-0.163577,-13.206674,8.218816,58.317646
1618378882.965579,51.000000,0.000000,4272.820313,4264.615234,4206.666504,4206.666504,4262.563965,0.000000,3.000000,55.000000,,,,0.000000,4.000000,4.000000,4.000000,4.000000,4.000000,100.000000,,,,,,,,,,,,,,,,,,,
1618378882.973400,52.000000,0.000000,4264.102539,4274.871582,4189.743652,4202.563965,4255.897461,0.000000,3.000000,55.000000,,,,0.000000,4.000000,4.000000,4.000000,4.000000,4.000000,100.000000,,,,,,,,26.000000,0.000000,0.273321,0.585693,0.274658,-0.711914,0.987808,0.070802,-0.153811,-13.321575,6.798780,58.945938
1618378882.981121,53.000000,0.000000,4250.769043,4301.538574,4194.358887,4206.153809,4247.692383,0.000000,3.000000,55.000000,,,,0.000000,4.000000,4.000000,4.000000,4.000000,4.000000,100.000000,,,,,,,,,,,,,,,,,,,
1618378882.988942,54.000000,0.000000,4255.384766,4296.922852,4208.205078,4204.102539,4246.153809,0.000000,3.000000,55.000000,,,,0.000000,4.000000,4.000000,4.000000,4.000000,4.000000,100.000000,,,,,,,,27.000000,0.000000,0.273434,0.585938,0.274658,-0.711670,0.985367,0.055177,-0.170413,-13.365171,9.169486,57.597313
1618378882.996764,55.000000,0.000000,4252.307617,4269.230957,4212.307617,4200.000000,4238.974121,0.000000,3.000000,55.000000,,,,0.000000,4.000000,4.000000,4.000000,4.000000,4.000000,100.000000,,,,,,,,,,,,,,,,,,,
1618378883.004585,56.000000,0.000000,4249.743652,4260.512695,4210.256348,4201.025879,4239.487305,0.000000,3.000000,55.000000,,,,0.000000,4.000000,4.000000,4.000000,4.000000,4.000000,100.000000,,,,,,,,28.000000,0.000000,0.273434,0.585938,0.274658,-0.711670,0.989273,0.069825,-0.165042,-13.224961,11.482567,56.443363
1618378883.012406,57.000000,0.000000,4260.512695,4267.692383,4203.589844,4204.102539,4247.692383,0.000000,3.000000,55.000000,,,,0.000000,4.000000,4.000000,4.000000,4.000000,4.000000,100.000000,,,,,,,,,,,,,,,,,,,
1618378883.020228,58.000000,0.000000,4268.205078,4274.358887,4196.922852,4200.000000,4246.666504,0.000000,3.000000,55.000000,,,,0.000000,4.000000,4.000000,4.000000,4.000000,4.000000,100.000000,,,,,,,,29.000000,0.000000,0.273321,0.585693,0.274658,-0.711914,0.987808,0.070802,-0.153811,-13.397849,13.564340,55.285179
1618378883.027950,59.000000,0.000000,4268.205078,4273.846191,4196.410156,4192.820313,4248.717773,0.000000,3.000000,55.000000,,,,0.000000,4.000000,4.000000,4.000000,4.000000,4.000000,100.000000,,,,,,,,,,,,,,,,,,,
1618378883.035773,60.000000,0.000000,4271.282227,4260.000000,4201.538574,4197.436035,4260.512695,0.000000,3.000000,55.000000,,,,0.000000,4.000000,4.000000,4.000000,4.000000,4.000000,100.000000,,,,,,,,30.000000,0.000000,0.273434,0.585938,0.274658,-0.711670,0.989273,0.069825,-0.165042,-13.254372,15.437936,54.362446
1618378883.043595,61.000000,0.000000,4275.384766,4254.358887,4204.615234,4203.589844,4268.205078,0.000000,3.000000,55.000000,,,,0.000000,4.000000,4.000000,4.000000,4.000000,4.000000,100.000000,,,,,,,,,,,,,,,,,,,
1618378883.051418,62.000000,0.000000,4274.871582,4264.615234,4205.641113,4202.051270,4269.230957,0.000000,3.000000,55.000000,,,,0.000000,4.000000,4.000000,4.000000,4.000000,4.000000,100.000000,,,,,,,,31.000000,0.000000,0.273188,0.585938,0.274902,-0.711670,0.988296,0.066896,-0.164553,-13.185058,13.116543,55.446075
1618378883.059240,63.000000,0.000000,4278.461426,4279.487305,4208.205078,4210.769043,4272.820313,0.000000,3.000000,55.000000,,,,0.000000,4.000000,4.000000,4.000000,4.000000,4.000000,100.000000,1.000000,100.000000,4.000000,4.000000,4.000000,4.000000,4.000000,,,,,,,,,,,,
1618378883.067063,64.000000,0.000000,4279.487305,4268.205078,4207.692383,4213.846191,4270.769043,450.000000,3.000000,55.000000,,,,0.000000,4.000000,4.000000,4.000000,4.000000,4.000000,100.000000,,,,,,,,32.000000,0.000000,0.273188,0.585938,0.274902,-0.711670,0.981460,0.071290,-0.175784,-13.003043,14.915287,54.567066
