title:S14, start timestamp:1618379031.226955, stop timestamp:1618379142.242201, headset type:INSIGHT, headset serial:A2D202F3, headset firmware:932, channels:40, sampling rate:eeg_128;mot_64, samples:14210     , version:2.1, 
Timestamp,EEG.Counter,EEG.Interpolated,EEG.AF3,EEG.T7,EEG.Pz,EEG.T8,EEG.AF4,EEG.RawCq,EEG.Battery,EEG.BatteryPercent,MarkerIndex,MarkerType,MarkerValueInt,EEG.MarkerHardware,CQ.AF3,CQ.T7,CQ.Pz,CQ.T8,CQ.AF4,CQ.Overall,EQ.SampleRateQuality,EQ.OVERALL,EQ.AF3,EQ.T7,EQ.Pz,EQ.T8,EQ.AF4,MOT.CounterMems,MOT.InterpolatedMems,MOT.Q0,MOT.Q1,MOT.Q2,MOT.Q3,MOT.AccX,MOT.AccY,MOT.AccZ,MOT.MagX,MOT.MagY,MOT.MagZ
1618379031.226955,82.000000,0.000000,4168.205078,4169.743652,4128.205078,4104.615234,4164.615234,450.000000,1.000000,15.000000,,,,0.000000,4.000000,4.000000,4.000000,4.000000,4.000000,100.000000,,,,,,,,41.000000,0.000000,0.302544,0.581299,0.289307,-0.697754,0.996109,0.052735,-0.165530,-13.552717,7.502225,59.814682
1618379031.234872,83.000000,0.000000,4180.000000,4178.461426,4134.358887,4114.358887,4176.410156,16232.000000,1.000000,15.000000,,,,0.000000,4.000000,4.000000,4.000000,4.000000,4.000000,100.000000,,,,,,,,,,,,,,,,,,,
1618379031.242690,84.000000,0.000000,4188.717773,4183.589844,4129.743652,4118.461426,4182.563965,450.000000,1.000000,15.000000,,,,0.000000,4.000000,4.000000,4.000000,4.000000,4.000000,100.000000,,,,,,,,42.000000,0.000000,0.302544,0.581299,0.289307,-0.697754,0.997574,0.042481,-0.166995,-13.752645,9.982033,60.353088
1618379031.250507,85.000000,0.000000,4185.641113,4177.436035,4126.153809,4116.922852,4180.512695,450.000000,1.000000,15.000000,,,,0.000000,4.000000,4.000000,4.000000,4.000000,4.000000,100.000000,,,,,,,,,,,,,,,,,,,
1618379031.258325,86.000000,0.000000,4178.974121,4170.256348,4126.153809,4114.871582,4175.384766,450.000000,1.000000,15.000000,,,,0.000000,4.000000,4.000000,4.000000,4.000000,4.000000,100.000000,,,,,,,,43.000000,0.000000,0.301980,0.581299,0.289307,-0.697998,0.998550,0.048341,-0.167483,-13.633503,8.325860,60.777840
1618379031.266142,87.000000,0.000000,4181.538574,4176.410156,4124.615234,4116.410156,4173.333496,16232.000000,1.000000,15.000000,,,,0.000000,4.000000,4.000000,4.000000,4.000000,4.000000,100.000000,,,,,,,,,,,,,,,,,,,
1618379031.274061,88.000000,0.000000,4181.025879,4177.948730,4124.102539,4112.820313,4171.282227,450.000000,1.000000,15.000000,,,,0.000000,4.000000,4.000000,4.000000,4.000000,4.000000,100.000000,,,,,,,,44.000000,0.000000,0.302544,0.581299,0.289307,-0.697754,0.996109,0.052735,-0.165530,-13.645906,10.783119,59.246025
1618379031.281879,89.000000,0.000000,4159.487305,4165.128418,4120.512695,4091.794922,4150.769043,450.000000,1.000000,15.000000,,,,0.000000,4.000000,4.000000,4.000000,4.000000,4.000000,100.000000,,,,,,,,,,,,,,,,,,,
1618379031.289698,90.000000,0.000000,4149.743652,4159.487305,4109.743652,4072.820557,4133.333496,450.000000,1.000000,15.000000,,,,0.000000,4.000000,4.000000,4.000000,4.000000,4.000000,100.000000,,,,,,,,45.000000,0.000000,0.301980,0.581299,0.289307,-0.697998,0.998550,0.048341,-0.167483,-13.537438,9.046839,59.781479
1618379031.297517,91.000000,0.000000,4172.820313,4168.717773,4114.358887,4086.666748,4151.282227,16232.000000,1.000000,15.000000,,,,0.000000,4.000000,4.000000,4.000000,4.000000,4.000000,100.000000,,,,,,,,,,,,,,,,,,,
1618379031.305336,92.000000,0.000000,4196.410156,4175.384766,4134.871582,4113.846191,4174.871582,450.000000,1.000000,15.000000,,,,0.000000,4.000000,4.000000,4.000000,4.000000,4.000000,100.000000,,,,,,,,46.000000,0.000000,0.302544,0.581299,0.289307,-0.697754,0.986343,0.047364,-0.154299,-13.559448,7.484186,60.263393
1618379031.313154,93.000000,0.000000,4200.512695,4173.333496,4144.102539,4122.051270,4175.897461,450.000000,1.000000,15.000000,,,,0.000000,4.000000,4.000000,4.000000,4.000000,4.000000,100.000000,,,,,,,,,,,,,,,,,,,
1618379031.320973,94.000000,0.000000,4195.897461,4170.769043,4139.487305,4116.410156,4171.282227,450.000000,1.000000,15.000000,,,,0.000000,4.000000,4.000000,4.000000,4.000000,4.000000,100.000000,,,,,,,,47.000000,0.000000,0.301980,0.581299,0.289307,-0.697998,0.999039,0.045899,-0.155276,-13.459626,9.786350,58.842834
1618379031.328792,95.000000,0.000000,4194.358887,4176.410156,4135.897461,4117.436035,4173.333496,16232.000000,1.000000,15.000000,,,,0.000000,4.000000,4.000000,4.000000,4.000000,4.000000,100.000000,,,,,,,,,,,,,,,,,,,
1618379031.336610,96.000000,0.000000,4198.461426,4184.102539,4135.897461,4121.538574,4182.051270,450.000000,1.000000,15.000000,,,,0.000000,4.000000,4.000000,4.000000,4.000000,4.000000,100.000000,,,,,,,,48.000000,0.000000,0.301746,0.581299,0.289551,-0.697998,0.995621,0.058595,-0.164065,-13.429602,11.798484,59.358795
1618379031.344529,97.000000,0.000000,4202.051270,4180.000000,4135.897461,4121.538574,4189.230957,450.000000,1.000000,15.000000,,,,0.000000,4.000000,4.000000,4.000000,4.000000,4.000000,100.000000,,,,,,,,,,,,,,,,,,,
1618379031.352348,98.000000,0.000000,4197.436035,4170.256348,4130.256348,4120.000000,4182.563965,450.000000,1.000000,15.000000,,,,0.000000,4.000000,4.000000,4.000000,4.000000,4.000000,100.000000,,,,,,,,49.000000,0.000000,0.301746,0.581299,0.289551,-0.697998,0.995621,0.052247,-0.158694,-13.342764,13.908481,59.823162
1618379031.360166,99.000000,0.000000,4193.846191,4166.666504,4124.102539,4115.384766,4173.333496,16232.000000,1.000000,15.000000,,,,0.000000,4.000000,4.000000,4.000000,4.000000,4.000000,100.000000,,,,,,,,,,,,,,,,,,,
1618379031.367985,100.000000,0.000000,4196.922852,4172.307617,4127.179688,4117.436035,4181.538574,450.000000,1.000000,15.000000,,,,0.000000,4.000000,4.000000,4.000000,4.000000,4.000000,100.000000,,,,,,,,50.000000,0.000000,0.302216,0.581055,0.289551,-0.697998,0.999039,0.054200,-0.172854,-13.324426,11.799849,60.121460
1618379031.375804,101.000000,0.000000,4194.871582,4175.384766,4129.230957,4119.487305,4189.743652,450.000000,1.000000,15.000000,,,,0.000000,4.000000,4.000000,4.000000,4.000000,4.000000,100.000000,,,,,,,,,,,,,,,,,,,
1618379031.383622,102.000000,0.000000,4192.307617,4169.743652,4128.717773,4111.794922,4183.589844,450.000000,1.000000,15.000000,,,,0.000000,4.000000,4.000000,4.000000,4.000000,4.000000,100.000000,,,,,,,,51.000000,0.000000,0.301652,0.581055,0.289551,-0.698242,0.975113,0.044434,-0.174807,-13.427552,9.902079,60.509556
1618379031.391441,103.000000,0.000000,4206.153809,4172.820313,4132.820313,4114.871582,4184.102539,16232.000000,1.000000,15.000000,,,,0.000000,4.000000,4.000000,4.000000,4.000000,4.000000,100.000000,,,,,,,,,,,,,,,,,,,
1618379031.399260,104.000000,0.000000,4217.948730,4185.641113,4140.000000,4127.692383,4189.743652,450.000000,1.000000,15.000000,,,,0.000000,4.000000,4.000000,4.000000,4.000000,4.000000,100.000000,,,,,,,,52.000000,0.000000,0.301887,0.580811,0.289795,-0.698242,0.999039,0.055177,-0.168948,-13.460550,11.962455,60.799030
1618379031.407179,105.000000,1.000000,4217.500000,4187.115234,4140.577148,4128.012695,4189.743652,450.000000,1.000000,15.000000,,,,0.000000,4.000000,4.000000,4.000000,4.000000,4.000000,100.000000,,,,,,,,,,,,,,,,,,,
1618379031.414998,106.000000,1.000000,4217.051270,4188.589844,4141.153809,4128.333496,4189.743652,450.000000,1.000000,15.000000,,,,0.000000,4.000000,4.000000,4.000000,4.000000,4.000000,100.000000,,,,,,,,53.000000,1.000000,0.000000,0.580872,0.289795,-0.698242,0.997208,0.051881,0.000000,0.000000,0.000000,0.000000
1618379031.422817,107.000000,1.000000,4216.602539,4190.063965,4141.730957,4128.653809,4189.743652,450.000000,1.000000,15.000000,,,,0.000000,4.000000,4.000000,4.000000,4.000000,4.000000,100.000000,,,,,,,,,,,,,,,,,,,
1618379031.430636,108.000000,1.000000,4216.153809,4191.538574,4142.307617,4128.974121,4189.743652,450.000000,1.000000,15.000000,,,,0.000000,4.000000,4.000000,4.000000,4.000000,4.000000,100.000000,,,,,,,,54.000000,1.000000,0.000000,0.580933,0.289795,-0.698242,0.995377,0.048585,0.000000,0.000000,0.000000,0.000000
1618379031.438456,109.000000,1.000000,4215.705078,4193.012695,4142.884766,4129.294922,4189.743652,450.000000,1.000000,15.000000,,,,0.000000,4.000000,4.000000,4.000000,4.000000,4.000000,100.000000,,,,,,,,,,,,,,,,,,,
1618379031.446275,110.000000,1.000000,4215.256348,4194.487305,4143.461426,4129.615234,4189.743652,450.000000,1.000000,15.000000,,,,0.000000,4.000000,4.000000,4.000000,4.000000,4.000000,100.000000,,,,,,,,55.000000,1.000000,0.000000,0.580994,0.289795,-0.698242,0.993545,0.045289,0.000000,0.000000,0.000000,0.000000
1618379031.454094,111.000000,1.000000,4214.807617,4195.961426,4144.038574,4129.936035,4189.743652,450.000000,1.000000,15.000000,,,,0.000000,4.000000,4.000000,4.000000,4.000000,4.000000,100.000000,,,,,,,,,,,,,,,,,,,
1618379031.461913,112.000000,0.000000,4214.358887,4197.436035,4144.615234,4130.256348,4189.743652,450.000000,1.000000,15.000000,,,,0.000000,4.000000,4.000000,4.000000,4.000000,4.000000,100.000000,,,,,,,,56.000000,0.000000,0.301417,0.581055,0.289795,-0.698242,0.991714,0.041993,-0.155764,-13.370618,13.936423,61.298817
1618379031.469732,113.000000,0.000000,4214.871582,4193.333496,4150.256348,4133.846191,4184.615234,450.000000,1.000000,15.000000,,,,0.000000,4.000000,4.000000,4.000000,4.000000,4.000000,100.000000,,,,,,,,,,,,,,,,,,,
1618379031.477552,114.000000,0.000000,4218.461426,4189.230957,4149.743652,4135.384766,4186.153809,450.000000,1.000000,15.000000,,,,0.000000,4.000000,4.000000,4.000000,4.000000,4.000000,100.000000,,,,,,,,57.000000,0.000000,0.301417,0.581055,0.289795,-0.698242,0.996597,0.050294,-0.149905,-13.469125,11.884812,61.688808
1618379031.485371,115.000000,0.000000,4218.974121,4196.410156,4142.051270,4128.717773,4193.846191,16232.000000,1.000000,15.000000,,,,0.000000,4.000000,4.000000,4.000000,4.000000,4.000000,100.000000,,,,,,,,,,,,,,,,,,,
1618379031.493190,116.000000,0.000000,4218.461426,4204.102539,4137.948730,4127.692383,4201.538574,450.000000,1.000000,15.000000,,,,0.000000,4.000000,4.000000,4.000000,4.000000,4.000000,100.000000,,,,,,,,58.000000,0.000000,0.301417,0.581055,0.289795,-0.698242,0.986831,0.064454,-0.156741,-13.438150,13.926361,62.039803
1618379031.501009,117.000000,0.000000,4220.000000,4203.589844,4142.051270,4133.846191,4203.077148,450.000000,1.000000,15.000000,,,,0.000000,4.000000,4.000000,4.000000,4.000000,4.000000,100.000000,,,,,,,,,,,,,,,,,,,
1618379031.508828,118.000000,0.000000,4224.102539,4203.589844,4149.230957,4142.051270,4207.692383,450.000000,1.000000,15.000000,,,,0.000000,4.000000,4.000000,4.000000,4.000000,4.000000,100.000000,,,,,,,,59.000000,0.000000,0.300946,0.581299,0.289795,-0.698242,0.996597,0.057618,-0.163577,-13.529904,11.875755,62.116436
1618379031.516647,119.000000,0.000000,4221.025879,4203.589844,4147.179688,4141.025879,4210.256348,16232.000000,1.000000,15.000000,,,,0.000000,4.000000,4.000000,4.000000,4.000000,4.000000,100.000000,,,,,,,,,,,,,,,,,,,
1618379031.524467,120.000000,0.000000,4217.948730,4201.538574,4149.230957,4136.922852,4201.538574,450.000000,1.000000,15.000000,,,,0.000000,4.000000,4.000000,4.000000,4.000000,4.000000,100.000000,,,,,,,,60.000000,0.000000,0.301417,0.581055,0.289795,-0.698242,0.990738,0.050294,-0.163577,-13.492851,13.858395,62.305038
1618379031.532286,121.000000,0.000000,4222.051270,4205.641113,4160.000000,4142.563965,4200.000000,450.000000,1.000000,15.000000,,,,0.000000,4.000000,4.000000,4.000000,4.000000,4.000000,100.000000,,,,,,,,,,,,,,,,,,,
1618379031.540003,122.000000,0.000000,4216.410156,4202.051270,4153.333496,4144.615234,4203.589844,450.000000,1.000000,15.000000,,,,0.000000,4.000000,4.000000,4.000000,4.000000,4.000000,100.000000,,,,,,,,61.000000,0.000000,0.301417,0.581055,0.289795,-0.698242,0.979019,0.062501,-0.151858,-13.579135,11.814586,62.534592
1618379031.547820,123.000000,0.000000,4205.128418,4188.717773,4135.384766,4140.512695,4200.000000,16232.000000,1.000000,15.000000,,,,0.000000,4.000000,4.000000,4.000000,4.000000,4.000000,100.000000,,,,,,,,,,,,,,,,,,,
1618379031.555638,124.000000,0.000000,4209.230957,4188.717773,4133.846191,4147.179688,4197.948730,450.000000,1.000000,15.000000,,,,0.000000,4.000000,4.000000,4.000000,4.000000,4.000000,100.000000,,,,,,,,62.000000,0.000000,0.301417,0.581055,0.289795,-0.698242,0.982925,0.049317,-0.152834,-13.537160,9.735897,62.860825
1618379031.563455,125.000000,0.000000,4214.871582,4191.282227,4136.922852,4149.230957,4199.487305,450.000000,1.000000,15.000000,,,,0.000000,4.000000,4.000000,4.000000,4.000000,4.000000,100.000000,,,,,,,,,,,,,,,,,,,
1618379031.571272,126.000000,0.000000,4210.256348,4188.205078,4128.205078,4138.461426,4194.871582,450.000000,1.000000,15.000000,,,,0.000000,4.000000,4.000000,4.000000,4.000000,4.000000,100.000000,,,,,,,,63.000000,0.000000,0.300851,0.581055,0.289795,-0.698486,0.990738,0.065919,-0.165042,-13.319936,11.872706,61.120708
1618379031.579089,127.000000,0.000000,4209.230957,4193.846191,4125.641113,4133.333496,4187.692383,233.000000,1.000000,15.000000,,,,0.000000,4.000000,4.000000,4.000000,4.000000,4.000000,100.000000,0.972656,100.000000,4.000000,4.000000,4.000000,4.000000,4.000000,,,,,,,,,,,,
1618379031.586907,0.000000,0.000000,4216.410156,4199.487305,4135.897461,4134.358887,4189.743652,450.000000,1.000000,15.000000,,,,0.000000,4.000000,4.000000,4.000000,4.000000,4.000000,100.000000,,,,,,,,0.000000,0.000000,0.301086,0.581055,0.289551,-0.698486,0.998550,0.057618,-0.158694,-13.423511,10.147098,61.528515
1618379031.594724,1.000000,0.000000,4227.179688,4200.512695,4144.102539,4137.948730,4201.538574,450.000000,1.000000,15.000000,,,,0.000000,4.000000,4.000000,4.000000,4.000000,4.000000,100.000000,,,,,,,,,,,,,,,,,,,
1618379031.602541,2.000000,0.000000,4231.794922,4203.077148,4145.128418,4143.589844,4210.769043,16232.000000,1.000000,15.000000,,,,0.000000,4.000000,4.000000,4.000000,4.000000,4.000000,100.000000,,,,,,,,1.000000,0.000000,0.301086,0.581055,0.289551,-0.698486,0.981949,0.050782,-0.168460,-13.397098,12.242786,59.861816
1618379031.610259,3.000000,0.000000,4225.128418,4200.512695,4143.589844,4146.666504,4211.794922,450.000000,1.000000,15.000000,,,,0.000000,4.000000,4.000000,4.000000,4.000000,4.000000,100.000000,,,,,,,,,,,,,,,,,,,
1618379031.618076,4.000000,0.000000,4218.974121,4200.512695,4148.717773,4147.179688,4210.256348,16224.000000,1.000000,15.000000,,,,0.000000,4.000000,4.000000,4.000000,4.000000,4.000000,100.000000,,,,,,,,2.000000,0.000000,0.300990,0.580811,0.289551,-0.698730,0.988296,0.061036,-0.155764,-13.492957,10.300724,60.515141
1618379031.625893,5.000000,0.000000,4223.589844,4210.256348,4158.461426,4155.897461,4214.358887,450.000000,1.000000,15.000000,,,,0.000000,4.000000,4.000000,4.000000,4.000000,4.000000,100.000000,,,,,,,,,,,,,,,,,,,
1618379031.633710,6.000000,0.000000,4223.077148,4210.256348,4158.461426,4162.563965,4212.820313,16198.000000,1.000000,15.000000,,,,0.000000,4.000000,4.000000,4.000000,4.000000,4.000000,100.000000,,,,,,,,3.000000,0.000000,0.300990,0.580811,0.289551,-0.698730,0.985367,0.050782,-0.161624,-13.459599,8.552867,60.804054
1618379031.641528,7.000000,0.000000,4218.974121,4201.025879,4152.307617,4156.922852,4209.230957,450.000000,1.000000,15.000000,,,,0.000000,4.000000,4.000000,4.000000,4.000000,4.000000,100.000000,,,,,,,,,,,,,,,,,,,
1618379031.649345,8.000000,0.000000,4228.717773,4206.666504,4152.307617,4154.358887,4221.538574,450.000000,1.000000,15.000000,,,,0.000000,4.000000,4.000000,4.000000,4.000000,4.000000,100.000000,,,,,,,,4.000000,0.000000,0.300990,0.580811,0.289551,-0.698730,0.993667,0.058595,-0.160159,-13.489393,10.867795,61.243523
1618379031.657162,9.000000,0.000000,4236.410156,4210.769043,4153.333496,4159.487305,4232.820313,16222.000000,1.000000,15.000000,,,,0.000000,4.000000,4.000000,4.000000,4.000000,4.000000,100.000000,,,,,,,,,,,,,,,,,,,
1618379031.664980,10.000000,0.000000,4236.922852,4208.717773,4152.820313,4163.077148,4228.205078,450.000000,1.000000,15.000000,,,,0.000000,4.000000,4.000000,4.000000,4.000000,4.000000,100.000000,,,,,,,,5.000000,0.000000,0.300990,0.580811,0.289551,-0.698730,0.993179,0.055665,-0.158694,-13.516207,9.242677,61.579231
1618379031.672797,11.000000,0.000000,4240.512695,4209.743652,4149.743652,4161.025879,4225.641113,16226.000000,1.000000,15.000000,,,,0.000000,4.000000,4.000000,4.000000,4.000000,4.000000,100.000000,,,,,,,,,,,,,,,,,,,
1618379031.680614,12.000000,0.000000,4244.615234,4208.717773,4149.743652,4163.077148,4233.333496,450.000000,1.000000,15.000000,,,,0.000000,4.000000,4.000000,4.000000,4.000000,4.000000,100.000000,,,,,,,,6.000000,0.000000,0.300423,0.580811,0.289551,-0.698975,0.990250,0.047852,-0.170413,-13.420709,11.488624,59.967274
1618379031.688331,13.000000,0.000000,4246.666504,4209.230957,4154.871582,4170.769043,4237.948730,450.000000,1.000000,15.000000,,,,0.000000,4.000000,4.000000,4.000000,4.000000,4.000000,100.000000,,,,,,,,,,,,,,,,,,,
1618379031.696148,14.000000,0.000000,4247.179688,4212.820313,4153.846191,4169.230957,4231.794922,450.000000,1.000000,15.000000,,,,0.000000,4.000000,4.000000,4.000000,4.000000,4.000000,100.000000,,,,,,,,7.000000,0.000000,0.300658,0.580811,0.289307,-0.698975,0.997086,0.051759,-0.163088,-13.574022,9.621977,60.430607
1618379031.703965,15.000000,0.000000,4244.102539,4210.769043,4147.692383,4160.000000,4227.179688,16226.000000,1.000000,15.000000,,,,0.000000,4.000000,4.000000,4.000000,4.000000,4.000000,100.000000,,,,,,,,,,,,,,,,,,,
1618379031.711782,16.000000,0.000000,4237.948730,4210.256348,4146.666504,4157.436035,4227.692383,0.000000,1.000000,15.000000,,,,0.000000,4.000000,4.000000,4.000000,4.000000,4.000000,100.000000,,,,,,,,8.000000,0.000000,0.300090,0.580811,0.289307,-0.699219,0.994156,0.054200,-0.161624,-13.592373,8.001810,58.933514
1618379031.719599,17.000000,0.000000,4234.358887,4211.794922,4149.230957,4161.538574,4224.615234,0.000000,1.000000,15.000000,,,,0.000000,4.000000,4.000000,4.000000,4.000000,4.000000,100.000000,,,,,,,,,,,,,,,,,,,
1618379031.727416,18.000000,0.000000,4233.333496,4208.717773,4149.230957,4165.641113,4214.871582,0.000000,1.000000,15.000000,,,,0.000000,4.000000,4.000000,4.000000,4.000000,4.000000,100.000000,,,,,,,,9.000000,0.000000,0.300562,0.580566,0.289307,-0.699219,0.989273,0.062501,-0.165530,-13.549074,6.424029,59.440407
1618379031.735233,19.000000,0.000000,4236.410156,4206.666504,4154.871582,4170.256348,4213.333496,0.000000,1.000000,15.000000,,,,0.000000,4.000000,4.000000,4.000000,4.000000,4.000000,100.000000,,,,,,,,,,,,,,,,,,,
1618379031.743050,20.000000,0.000000,4240.000000,4212.820313,4164.615234,4178.461426,4225.641113,0.000000,1.000000,15.000000,,,,0.000000,4.000000,4.000000,4.000000,4.000000,4.000000,100.000000,,,,,,,,10.000000,0.000000,0.300562,0.580566,0.289307,-0.699219,0.988296,0.066407,-0.161135,-13.510105,5.063842,59.836796
1618379031.750867,21.000000,0.000000,4243.077148,4217.436035,4166.153809,4183.077148,4236.922852,0.000000,1.000000,15.000000,,,,0.000000,4.000000,4.000000,4.000000,4.000000,4.000000,100.000000,,,,,,,,,,,,,,,,,,,
1618379031.758585,22.000000,0.000000,4242.563965,4214.871582,4164.615234,4174.871582,4234.358887,0.000000,1.000000,15.000000,,,,0.000000,4.000000,4.000000,4.000000,4.000000,4.000000,100.000000,,,,,,,,11.000000,0.000000,0.300090,0.580811,0.289307,-0.699219,0.994156,0.054200,-0.161624,-13.594663,7.847303,58.399082
1618379031.766402,23.000000,0.000000,4239.487305,4214.358887,4167.179688,4167.692383,4233.333496,0.000000,1.000000,15.000000,,,,0.000000,4.000000,4.000000,4.000000,4.000000,4.000000,100.000000,,,,,,,,,,,,,,,,,,,
1618379031.774219,24.000000,0.000000,4244.102539,4223.589844,4172.820313,4171.794922,4246.666504,0.000000,1.000000,15.000000,,,,0.000000,4.000000,4.000000,4.000000,4.000000,4.000000,100.000000,,,,,,,,12.000000,0.000000,0.300562,0.580566,0.289307,-0.699219,0.988296,0.066407,-0.161135,-13.551135,6.344788,58.899605
1618379031.782036,25.000000,0.000000,4250.769043,4234.358887,4179.487305,4172.820313,4254.358887,0.000000,1.000000,15.000000,,,,0.000000,4.000000,4.000000,4.000000,4.000000,4.000000,100.000000,,,,,,,,,,,,,,,,,,,
1618379031.789853,26.000000,0.000000,4254.358887,4238.974121,4179.487305,4170.769043,4250.256348,0.000000,1.000000,15.000000,,,,0.000000,4.000000,4.000000,4.000000,4.000000,4.000000,100.000000,,,,,,,,13.000000,0.000000,0.300562,0.580566,0.289307,-0.699219,1.006363,0.069825,-0.163088,-13.511959,5.112156,59.409889
1618379031.797670,27.000000,0.000000,4250.769043,4233.333496,4168.717773,4165.641113,4240.512695,0.000000,1.000000,15.000000,,,,0.000000,4.000000,4.000000,4.000000,4.000000,4.000000,100.000000,,,,,,,,,,,,,,,,,,,
1618379031.805487,28.000000,0.000000,4244.615234,4231.282227,4165.641113,4157.948730,4235.897461,0.000000,1.000000,15.000000,,,,0.000000,4.000000,4.000000,4.000000,4.000000,4.000000,100.000000,,,,,,,,14.000000,0.000000,0.300562,0.580566,0.289307,-0.699219,0.997086,0.050294,-0.166506,-13.536517,7.711339,59.869144
1618379031.813304,29.000000,0.000000,4244.102539,4238.974121,4175.897461,4158.974121,4234.871582,0.000000,1.000000,15.000000,,,,0.000000,4.000000,4.000000,4.000000,4.000000,4.000000,100.000000,,,,,,,,,,,,,,,,,,,
1618379031.821121,30.000000,0.000000,4243.589844,4237.948730,4180.000000,4163.589844,4228.205078,0.000000,1.000000,15.000000,,,,0.000000,4.000000,4.000000,4.000000,4.000000,4.000000,100.000000,,,,,,,,15.000000,0.000000,0.300562,0.580566,0.289307,-0.699219,0.997574,0.061524,-0.168948,-13.678249,6.282236,60.342289
1618379031.828838,31.000000,0.000000,4243.077148,4235.897461,4178.974121,4162.563965,4227.692383,0.000000,1.000000,15.000000,,,,0.000000,4.000000,4.000000,4.000000,4.000000,4.000000,100.000000,,,,,,,,,,,,,,,,,,,
1618379031.836655,32.000000,0.000000,4246.666504,4247.692383,4184.615234,4167.179688,4237.436035,0.000000,1.000000,15.000000,,,,0.000000,4.000000,4.000000,4.000000,4.000000,4.000000,100.000000,,,,,,,,16.000000,0.000000,0.299993,0.580566,0.289307,-0.699463,0.995621,0.064454,-0.167971,-13.626363,4.936228,60.768120
1618379031.844472,33.000000,0.000000,4247.692383,4254.871582,4190.256348,4178.974121,4241.538574,0.000000,1.000000,15.000000,,,,0.000000,4.000000,4.000000,4.000000,4.000000,4.000000,100.000000,,,,,,,,,,,,,,,,,,,
1618379031.852289,34.000000,0.000000,4244.615234,4247.179688,4185.641113,4183.589844,4237.948730,0.000000,1.000000,15.000000,,,,0.000000,4.000000,4.000000,4.000000,4.000000,4.000000,100.000000,,,,,,,,17.000000,0.000000,0.299993,0.580566,0.289307,-0.699463,1.000015,0.059571,-0.161135,-13.579664,3.904267,61.151367
1618379031.860106,35.000000,0.000000,4243.077148,4240.000000,4181.025879,4180.000000,4231.282227,0.000000,1.000000,15.000000,,,,0.000000,4.000000,4.000000,4.000000,4.000000,4.000000,100.000000,,,,,,,,,,,,,,,,,,,
1618379031.867923,36.000000,0.000000,4246.666504,4244.615234,4182.563965,4186.153809,4233.333496,0.000000,1.000000,15.000000,,,,0.000000,4.000000,4.000000,4.000000,4.000000,4.000000,100.000000,,,,,,,,18.000000,0.000000,0.299993,0.580566,0.289307,-0.699463,0.989273,0.058595,-0.171389,-13.477820,6.624239,59.642014
1618379031.875740,37.000000,0.000000,4256.410156,4255.897461,4189.230957,4200.512695,4249.743652,0.000000,1.000000,15.000000,,,,0.000000,4.000000,4.000000,4.000000,4.000000,4.000000,100.000000,,,,,,,,,,,,,,,,,,,
1618379031.883557,38.000000,0.000000,4268.205078,4264.102539,4192.820313,4204.102539,4263.589844,0.000000,1.000000,15.000000,,,,0.000000,4.000000,4.000000,4.000000,4.000000,4.000000,100.000000,,,,,,,,19.000000,0.000000,0.299659,0.580566,0.289063,-0.699707,1.000015,0.059083,-0.168948,-13.565607,5.244031,58.044334
1618379031.891374,39.000000,0.000000,4272.307617,4265.128418,4184.615234,4193.846191,4263.077148,0.000000,1.000000,15.000000,,,,0.000000,4.000000,4.000000,4.000000,4.000000,4.000000,100.000000,,,,,,,,,,,,,,,,,,,
1618379031.899091,40.000000,0.000000,4264.102539,4257.436035,4176.410156,4183.077148,4255.384766,0.000000,1.000000,15.000000,,,,0.000000,4.000000,4.000000,4.000000,4.000000,4.000000,100.000000,,,,,,,,20.000000,0.000000,0.299659,0.580566,0.289063,-0.699707,0.982925,0.065919,-0.162600,-13.584800,4.061659,58.699959
1618379031.906908,41.000000,0.000000,4265.641113,4253.846191,4179.487305,4183.077148,4260.000000,0.000000,1.000000,15.000000,,,,0.000000,4.000000,4.000000,4.000000,4.000000,4.000000,100.000000,,,,,,,,,,,,,,,,,,,
1618379031.914725,42.000000,0.000000,4281.538574,4262.563965,4187.692383,4195.384766,4275.384766,0.000000,1.000000,15.000000,,,,0.000000,4.000000,4.000000,4.000000,4.000000,4.000000,100.000000,,,,,,,,21.000000,0.000000,0.299659,0.580566,0.289063,-0.699707,0.994644,0.065431,-0.167971,-13.482443,6.765892,57.435745
1618379031.922542,43.000000,0.000000,4284.102539,4264.615234,4187.179688,4199.487305,4274.358887,0.000000,1.000000,15.000000,,,,0.000000,4.000000,4.000000,4.000000,4.000000,4.000000,100.000000,,,,,,,,,,,,,,,,,,,
1618379031.930359,44.000000,0.000000,4269.743652,4254.358887,4177.436035,4185.641113,4254.871582,0.000000,1.000000,15.000000,,,,0.000000,4.000000,4.000000,4.000000,4.000000,4.000000,100.000000,,,,,,,,22.000000,0.000000,0.299088,0.580566,0.289063,-0.699951,0.993179,0.076661,-0.166018,-13.450136,5.491149,58.092415
1618379031.938176,45.000000,0.000000,4264.102539,4249.230957,4175.897461,4175.897461,4243.589844,0.000000,1.000000,15.000000,,,,0.000000,4.000000,4.000000,4.000000,4.000000,4.000000,100.000000,,,,,,,,,,,,,,,,,,,
1618379031.945993,46.000000,0.000000,4263.589844,4254.358887,4183.077148,4182.563965,4247.692383,0.000000,1.000000,15.000000,,,,0.000000,4.000000,4.000000,4.000000,4.000000,4.000000,100.000000,,,,,,,,23.000000,0.000000,0.299324,0.580566,0.288818,-0.699951,0.988296,0.058595,-0.157229,-13.480876,4.284065,58.623604
1618379031.953811,47.000000,0.000000,4260.512695,4253.846191,4182.051270,4187.692383,4254.871582,0.000000,1.000000,15.000000,,,,0.000000,4.000000,4.000000,4.000000,4.000000,4.000000,100.000000,,,,,,,,,,,,,,,,,,,
1618379031.961528,48.000000,0.000000,4264.615234,4247.179688,4177.436035,4186.153809,4258.974121,0.000000,1.000000,15.000000,,,,0.000000,4.000000,4.000000,4.000000,4.000000,4.000000,100.000000,,,,,,,,24.000000,0.000000,0.299797,0.580322,0.288818,-0.699951,0.989761,0.057130,-0.178225,-13.508542,6.966058,59.161488
1618379031.969345,49.000000,0.000000,4262.563965,4246.666504,4175.897461,4184.102539,4255.384766,0.000000,1.000000,15.000000,,,,0.000000,4.000000,4.000000,4.000000,4.000000,4.000000,100.000000,,,,,,,,,,,,,,,,,,,
1618379031.977162,50.000000,0.000000,4248.717773,4250.256348,4167.692383,4175.897461,4244.615234,0.000000,1.000000,15.000000,,,,0.000000,4.000000,4.000000,4.000000,4.000000,4.000000,100.000000,,,,,,,,25.000000,0.000000,0.299797,0.580322,0.288818,-0.699951,1.000504,0.052735,-0.160647,-13.533442,5.671299,59.705399
1618379031.984980,51.000000,0.000000,4245.641113,4249.743652,4162.051270,4168.205078,4237.948730,0.000000,1.000000,15.000000,,,,0.000000,4.000000,4.000000,4.000000,4.000000,4.000000,100.000000,,,,,,,,,,,,,,,,,,,
1618379031.992797,52.000000,0.000000,4253.333496,4243.589844,4165.641113,4169.743652,4241.025879,0.000000,1.000000,15.000000,,,,0.000000,4.000000,4.000000,4.000000,4.000000,4.000000,100.000000,,,,,,,,26.000000,0.000000,0.299797,0.580322,0.288818,-0.699951,0.978531,0.055177,-0.164553,-13.576019,7.105997,58.541946
1618379032.000614,53.000000,0.000000,4249.230957,4237.436035,4169.743652,4166.153809,4241.538574,0.000000,1.000000,15.000000,,,,0.000000,4.000000,4.000000,4.000000,4.000000,4.000000,100.000000,,,,,,,,,,,,,,,,,,,
1618379032.008431,54.000000,0.000000,4245.641113,4237.436035,4170.256348,4163.077148,4240.512695,0.000000,1.000000,15.000000,,,,0.000000,4.000000,4.000000,4.000000,4.000000,4.000000,100.000000,,,,,,,,27.000000,0.000000,0.299462,0.580322,0.288574,-0.700195,0.977066,0.057130,-0.168948,-13.534355,5.737428,59.147812
1618379032.016249,55.000000,0.000000,4260.000000,4247.692383,4178.461426,4175.384766,4253.333496,0.000000,1.000000,15.000000,,,,0.000000,4.000000,4.000000,4.000000,4.000000,4.000000,100.000000,,,,,,,,,,,,,,,,,,,
1618379032.024066,56.000000,0.000000,4269.230957,4252.307617,4187.692383,4183.589844,4262.051270,0.000000,1.000000,15.000000,,,,0.000000,4.000000,4.000000,4.000000,4.000000,4.000000,100.000000,,,,,,,,28.000000,0.000000,0.298988,0.580566,0.288574,-0.700195,0.989761,0.047364,-0.165042,-13.556673,8.214269,57.838814
1618379032.031783,57.000000,0.000000,4257.436035,4246.666504,4182.563965,4176.410156,4251.794922,0.000000,1.000000,15.000000,,,,0.000000,4.000000,4.000000,4.000000,4.000000,4.000000,100.000000,,,,,,,,,,,,,,,,,,,
1618379032.039601,58.000000,0.000000,4254.358887,4248.205078,4177.436035,4178.461426,4246.666504,0.000000,1.000000,15.000000,,,,0.000000,4.000000,4.000000,4.000000,4.000000,4.000000,100.000000,,,,,,,,29.000000,0.000000,0.298988,0.580566,0.288574,-0.700195,0.979019,0.052735,-0.153811,-13.636575,6.675058,58.574806
1618379032.047418,59.000000,0.000000,4269.743652,4258.461426,4185.641113,4195.897461,4256.410156,0.000000,1.000000,15.000000,,,,0.000000,4.000000,4.000000,4.000000,4.000000,4.000000,100.000000,,,,,,,,,,,,,,,,,,,
1618379032.055235,60.000000,0.000000,4277.436035,4262.563965,4189.743652,4203.077148,4264.102539,0.000000,1.000000,15.000000,,,,0.000000,4.000000,4.000000,4.000000,4.000000,4.000000,100.000000,,,,,,,,30.000000,0.000000,0.298988,0.580566,0.288574,-0.700195,0.986831,0.049317,-0.161135,-13.648670,9.117951,57.263294
1618379032.063052,61.000000,0.000000,4272.307617,4264.615234,4184.615234,4194.871582,4269.230957,0.000000,1.000000,15.000000,,,,0.000000,4.000000,4.000000,4.000000,4.000000,4.000000,100.000000,,,,,,,,,,,,,,,,,,,
1618379032.070870,62.000000,0.000000,4276.922852,4265.641113,4184.615234,4190.256348,4275.384766,0.000000,1.000000,15.000000,,,,0.000000,4.000000,4.000000,4.000000,4.000000,4.000000,100.000000,,,,,,,,31.000000,0.000000,0.299697,0.580322,0.288330,-0.700195,0.992203,0.053223,-0.181155,-13.539926,7.488371,57.997025
1618379032.078687,63.000000,0.000000,4283.589844,4260.512695,4193.846191,4193.333496,4278.461426,0.000000,1.000000,15.000000,,,,0.000000,4.000000,4.000000,4.000000,4.000000,4.000000,100.000000,0.972656,100.000000,4.000000,4.000000,4.000000,4.000000,4.000000,,,,,,,,,,,,
1618379032.086504,64.000000,0.000000,4277.436035,4257.436035,4198.974121,4194.358887,4275.384766,450.000000,1.000000,15.000000,,,,0.000000,4.000000,4.000000,4.000000,4.000000,4.000000,100.000000,,,,,,,,32.000000,0.000000,0.299126,0.580322,0.288330,-0.700439,0.997574,0.067384,-0.177737,-13.501871,6.081565,58.717197
1618379032.094322,65.000000,0.000000,4268.717773,4257.948730,4193.846191,4190.769043,4267.179688,450.000000,1.000000,15.000000,,,,0.000000,4.000000,4.000000,4.000000,4.000000,4.000000,100.000000,,,,,,,,,,,,,,,,,,,
1618379032.102037,66.000000,0.000000,4263.589844,4251.794922,4186.153809,4188.205078,4257.436035,16216.000000,1.000000,15.000000,,,,0.000000,4.000000,4.000000,4.000000,4.000000,4.000000,100.000000,,,,,,,,33.000000,0.000000,0.298652,0.580566,0.288330,-0.700439,0.990738,0.054688,-0.160159,-13.467623,4.994886,59.245720
1618379032.109853,67.000000,0.000000,4252.820313,4247.692383,4176.410156,4180.512695,4246.153809,450.000000,1.000000,15.000000,,,,0.000000,4.000000,4.000000,4.000000,4.000000,4.000000,100.000000,,,,,,,,,,,,,,,,,,,
1618379032.117668,68.000000,0.000000,4234.358887,4247.692383,4168.717773,4163.589844,4229.230957,16208.000000,1.000000,15.000000,,,,0.000000,4.000000,4.000000,4.000000,4.000000,4.000000,100.000000,,,,,,,,34.000000,0.000000,0.299126,0.580322,0.288330,-0.700439,0.999527,0.055665,-0.164553,-13.376983,3.837428,59.661579
1618379032.125386,69.000000,0.000000,4235.384766,4250.769043,4177.948730,4166.666504,4228.717773,450.000000,1.000000,15.000000,,,,0.000000,4.000000,4.000000,4.000000,4.000000,4.000000,100.000000,,,,,,,,,,,,,,,,,,,
1618379032.133203,70.000000,0.000000,4262.051270,4260.512695,4200.000000,4199.487305,4252.307617,16187.000000,1.000000,15.000000,,,,0.000000,4.000000,4.000000,4.000000,4.000000,4.000000,100.000000,,,,,,,,35.000000,0.000000,0.299126,0.580322,0.288330,-0.700439,0.997574,0.067384,-0.177737,-13.355223,2.795717,60.215294
1618379032.141020,71.000000,0.000000,4280.512695,4269.743652,4212.307617,4219.487305,4271.282227,450.000000,1.000000,15.000000,,,,0.000000,4.000000,4.000000,4.000000,4.000000,4.000000,100.000000,,,,,,,,,,,,,,,,,,,
1618379032.148837,72.000000,0.000000,4275.897461,4267.692383,4205.128418,4212.307617,4271.282227,450.000000,1.000000,15.000000,,,,0.000000,4.000000,4.000000,4.000000,4.000000,4.000000,100.000000,,,,,,,,36.000000,0.000000,0.299126,0.580322,0.288330,-0.700439,0.991714,0.069825,-0.170413,-13.335638,5.566729,60.594009
1618379032.156654,73.000000,0.000000,4266.666504,4263.589844,4196.410156,4204.615234,4265.128418,16204.000000,1.000000,15.000000,,,,0.000000,4.000000,4.000000,4.000000,4.000000,4.000000,100.000000,,,,,,,,,,,,,,,,,,,
1618379032.164471,74.000000,0.000000,4262.051270,4264.102539,4195.897461,4200.512695,4258.461426,450.000000,1.000000,15.000000,,,,0.000000,4.000000,4.000000,4.000000,4.000000,4.000000,100.000000,,,,,,,,37.000000,0.000000,0.299126,0.580322,0.288330,-0.700439,0.996109,0.062013,-0.168460,-13.437643,4.172640,60.934853
1618379032.172288,75.000000,0.000000,4263.077148,4258.974121,4194.358887,4194.358887,4256.410156,16251.000000,1.000000,15.000000,,,,0.000000,4.000000,4.000000,4.000000,4.000000,4.000000,100.000000,,,,,,,,,,,,,,,,,,,
1618379032.180105,76.000000,0.000000,4270.256348,4254.358887,4189.230957,4194.871582,4259.487305,450.000000,1.000000,15.000000,,,,0.000000,4.000000,4.000000,4.000000,4.000000,4.000000,100.000000,,,,,,,,38.000000,0.000000,0.298891,0.580322,0.288574,-0.700439,0.995132,0.057618,-0.162112,-13.350001,6.985406,61.301426
1618379032.187822,77.000000,0.000000,4271.794922,4259.487305,4187.692383,4200.000000,4265.641113,450.000000,1.000000,15.000000,,,,0.000000,4.000000,4.000000,4.000000,4.000000,4.000000,100.000000,,,,,,,,,,,,,,,,,,,
1618379032.195639,78.000000,0.000000,4268.717773,4265.641113,4194.871582,4205.128418,4274.358887,450.000000,1.000000,15.000000,,,,0.000000,4.000000,4.000000,4.000000,4.000000,4.000000,100.000000,,,,,,,,39.000000,0.000000,0.298318,0.580322,0.288574,-0.700684,0.985855,0.055177,-0.159182,-13.450570,9.516895,61.631344
1618379032.203457,79.000000,0.000000,4274.871582,4267.692383,4204.102539,4207.179688,4276.922852,16251.000000,1.000000,15.000000,,,,0.000000,4.000000,4.000000,4.000000,4.000000,4.000000,100.000000,,,,,,,,,,,,,,,,,,,
1618379032.211274,80.000000,0.000000,4281.025879,4270.256348,4206.666504,4206.153809,4272.820313,450.000000,1.000000,15.000000,,,,0.000000,4.000000,4.000000,4.000000,4.000000,4.000000,100.000000,,,,,,,,40.000000,0.000000,0.298792,0.580078,0.288574,-0.700684,1.000992,0.062013,-0.157717,-13.421452,7.967052,62.047901
1618379032.219091,81.000000,0.000000,4279.487305,4274.358887,4212.820313,4209.743652,4274.871582,450.000000,1.000000,15.000000,,,,0.000000,4.000000,4.000000,4.000000,4.000000,4.000000,100.000000,,,,,,,,,,,,,,,,,,,
1618379032.226908,82.000000,0.000000,4280.512695,4274.871582,4218.974121,4212.820313,4283.077148,450.000000,1.000000,15.000000,,,,0.000000,4.000000,4.000000,4.000000,4.000000,4.000000,100.000000,,,,,,,,41.000000,0.000000,0.298792,0.580078,0.288574,-0.700684,1.003922,0.061524,-0.180179,-13.514875,6.392747,62.243355
1618379032.234726,83.000000,0.000000,4282.051270,4273.333496,4214.358887,4207.692383,4280.000000,16251.000000,1.000000,15.000000,,,,0.000000,4.000000,4.000000,4.000000,4.000000,4.000000,100.000000,,,,,,,,,,,,,,,,,,,
1618379032.242543,84.000000,0.000000,4281.025879,4274.871582,4217.948730,4208.205078,4273.333496,450.000000,1.000000,15.000000,,,,0.000000,4.000000,4.000000,4.000000,4.000000,4.000000,100.000000,,,,,,,,42.000000,0.000000,0.298556,0.580078,0.288818,-0.700684,1.003433,0.058106,-0.168460,-13.539141,8.923687,62.538895
1618379032.250360,85.000000,0.000000,4286.153809,4281.538574,4229.743652,4220.512695,4280.512695,450.000000,1.000000,15.000000,,,,0.000000,4.000000,4.000000,4.000000,4.000000,4.000000,100.000000,,,,,,,,,,,,,,,,,,,
1618379032.258078,86.000000,0.000000,4289.743652,4286.153809,4229.743652,4224.615234,4285.641113,450.000000,1.000000,15.000000,,,,0.000000,4.000000,4.000000,4.000000,4.000000,4.000000,100.000000,,,,,,,,43.000000,0.000000,0.297845,0.580322,0.289063,-0.700684,0.996109,0.054688,-0.166506,-13.560980,7.313534,62.804878
1618379032.265895,87.000000,0.000000,4283.077148,4280.000000,4223.589844,4217.948730,4276.922852,16251.000000,1.000000,15.000000,,,,0.000000,4.000000,4.000000,4.000000,4.000000,4.000000,100.000000,,,,,,,,,,,,,,,,,,,
1618379032.273712,88.000000,0.000000,4271.794922,4273.846191,4222.051270,4212.820313,4264.615234,450.000000,1.000000,15.000000,,,,0.000000,4.000000,4.000000,4.000000,4.000000,4.000000,100.000000,,,,,,,,44.000000,0.000000,0.298081,0.580322,0.288818,-0.700684,0.991714,0.053223,-0.171878,-13.520821,9.572948,62.924637
1618379032.281529,89.000000,0.000000,4271.282227,4271.282227,4218.974121,4211.282227,4262.051270,450.000000,1.000000,15.000000,,,,0.000000,4.000000,4.000000,4.000000,4.000000,4.000000,100.000000,,,,,,,,,,,,,,,,,,,
1618379032.289347,90.000000,0.000000,4283.077148,4270.769043,4217.948730,4217.948730,4271.282227,450.000000,1.000000,15.000000,,,,0.000000,4.000000,4.000000,4.000000,4.000000,4.000000,100.000000,,,,,,,,45.000000,0.000000,0.298081,0.580322,0.288818,-0.700684,0.989273,0.050294,-0.162112,-13.544492,11.726053,63.152046
1618379032.297164,91.000000,0.000000,4281.538574,4264.102539,4224.615234,4220.512695,4273.846191,16251.000000,1.000000,15.000000,,,,0.000000,4.000000,4.000000,4.000000,4.000000,4.000000,100.000000,,,,,,,,,,,,,,,,,,,
1618379032.304981,92.000000,0.000000,4268.717773,4259.487305,4225.128418,4218.461426,4266.666504,450.000000,1.000000,15.000000,,,,0.000000,4.000000,4.000000,4.000000,4.000000,4.000000,100.000000,,,,,,,,46.000000,0.000000,0.298318,0.580322,0.288574,-0.700684,0.990250,0.061036,-0.159182,-13.565796,9.955294,63.057640
1618379032.312799,93.000000,0.000000,4265.641113,4265.641113,4217.948730,4222.051270,4265.641113,450.000000,1.000000,15.000000,,,,0.000000,4.000000,4.000000,4.000000,4.000000,4.000000,100.000000,,,,,,,,,,,,,,,,,,,
1618379032.320616,94.000000,0.000000,4269.743652,4269.743652,4216.410156,4222.563965,4271.794922,450.000000,1.000000,15.000000,,,,0.000000,4.000000,4.000000,4.000000,4.000000,4.000000,100.000000,,,,,,,,47.000000,0.000000,0.298318,0.580322,0.288574,-0.700684,0.985367,0.056641,-0.173831,-13.465339,12.129979,61.297844
1618379032.328333,95.000000,0.000000,4277.436035,4269.743652,4216.410156,4218.461426,4276.922852,16251.000000,1.000000,15.000000,,,,0.000000,4.000000,4.000000,4.000000,4.000000,4.000000,100.000000,,,,,,,,,,,,,,,,,,,
1618379032.336151,96.000000,0.000000,4278.974121,4267.179688,4205.128418,4214.358887,4273.333496,450.000000,1.000000,15.000000,,,,0.000000,4.000000,4.000000,4.000000,4.000000,4.000000,100.000000,,,,,,,,48.000000,0.000000,0.297744,0.580322,0.288574,-0.700928,0.984390,0.055177,-0.162112,-13.494558,10.259012,61.687935
1618379032.343968,97.000000,0.000000,4265.641113,4263.589844,4191.794922,4211.282227,4266.666504,450.000000,1.000000,15.000000,,,,0.000000,4.000000,4.000000,4.000000,4.000000,4.000000,100.000000,,,,,,,,,,,,,,,,,,,
1618379032.351786,98.000000,0.000000,4264.102539,4266.153809,4188.717773,4211.282227,4273.333496,450.000000,1.000000,15.000000,,,,0.000000,4.000000,4.000000,4.000000,4.000000,4.000000,100.000000,,,,,,,,49.000000,0.000000,0.297980,0.580322,0.288330,-0.700928,0.983413,0.061036,-0.156252,-13.580671,8.455511,61.979202
1618379032.359603,99.000000,0.000000,4276.922852,4268.717773,4187.692383,4211.794922,4281.025879,16251.000000,1.000000,15.000000,,,,0.000000,4.000000,4.000000,4.000000,4.000000,4.000000,100.000000,,,,,,,,,,,,,,,,,,,
1618379032.367421,100.000000,0.000000,4276.922852,4266.153809,4179.487305,4209.230957,4273.333496,450.000000,1.000000,15.000000,,,,0.000000,4.000000,4.000000,4.000000,4.000000,4.000000,100.000000,,,,,,,,50.000000,0.000000,0.297980,0.580322,0.288330,-0.700928,0.999039,0.051270,-0.170413,-13.598358,6.892176,62.360970
1618379032.375238,101.000000,0.000000,4273.333496,4267.692383,4181.025879,4212.820313,4271.282227,450.000000,1.000000,15.000000,,,,0.000000,4.000000,4.000000,4.000000,4.000000,4.000000,100.000000,,,,,,,,,,,,,,,,,,,
1618379032.383056,102.000000,0.000000,4278.461426,4273.333496,4194.871582,4220.512695,4277.948730,450.000000,1.000000,15.000000,,,,0.000000,4.000000,4.000000,4.000000,4.000000,4.000000,100.000000,,,,,,,,51.000000,0.000000,0.297980,0.580322,0.288330,-0.700928,0.990738,0.055177,-0.160647,-13.733906,5.425358,62.644749
1618379032.390873,103.000000,0.000000,4278.974121,4275.897461,4200.000000,4221.025879,4278.461426,16251.000000,1.000000,15.000000,,,,0.000000,4.000000,4.000000,4.000000,4.000000,4.000000,100.000000,,,,,,,,,,,,,,,,,,,
1618379032.398691,104.000000,0.000000,4280.000000,4280.512695,4202.563965,4220.512695,4284.102539,450.000000,1.000000,15.000000,,,,0.000000,4.000000,4.000000,4.000000,4.000000,4.000000,100.000000,,,,,,,,52.000000,0.000000,0.297980,0.580322,0.288330,-0.700928,0.997086,0.058595,-0.165530,-13.676454,8.112852,60.866425
1618379032.406408,105.000000,0.000000,4288.717773,4285.128418,4210.256348,4221.025879,4294.871582,450.000000,1.000000,15.000000,,,,0.000000,4.000000,4.000000,4.000000,4.000000,4.000000,100.000000,,,,,,,,,,,,,,,,,,,
1618379032.414226,106.000000,0.000000,4287.179688,4286.666504,4212.307617,4217.436035,4292.820313,450.000000,1.000000,15.000000,,,,0.000000,4.000000,4.000000,4.000000,4.000000,4.000000,100.000000,,,,,,,,53.000000,0.000000,0.297980,0.580322,0.288330,-0.700928,0.997574,0.054688,-0.169924,-13.624746,6.703413,61.239841
1618379032.422043,107.000000,0.000000,4278.974121,4288.205078,4209.743652,4218.974121,4282.563965,16251.000000,1.000000,15.000000,,,,0.000000,4.000000,4.000000,4.000000,4.000000,4.000000,100.000000,,,,,,,,,,,,,,,,,,,
1618379032.429860,108.000000,0.000000,4281.538574,4285.641113,4212.820313,4228.717773,4286.153809,450.000000,1.000000,15.000000,,,,0.000000,4.000000,4.000000,4.000000,4.000000,4.000000,100.000000,,,,,,,,54.000000,0.000000,0.297980,0.580322,0.288330,-0.700928,0.982437,0.058595,-0.166506,-13.638025,5.315288,59.901089
1618379032.437677,109.000000,0.000000,4287.179688,4281.025879,4216.410156,4232.307617,4288.717773,450.000000,1.000000,15.000000,,,,0.000000,4.000000,4.000000,4.000000,4.000000,4.000000,100.000000,,,,,,,,,,,,,,,,,,,
1618379032.445495,110.000000,0.000000,4290.769043,4284.615234,4217.948730,4231.282227,4285.128418,450.000000,1.000000,15.000000,,,,0.000000,4.000000,4.000000,4.000000,4.000000,4.000000,100.000000,,,,,,,,55.000000,0.000000,0.297980,0.580322,0.288330,-0.700928,1.001968,0.058595,-0.168460,-13.530345,4.125790,60.430855
1618379032.453312,111.000000,0.000000,4297.436035,4288.205078,4222.051270,4240.000000,4295.897461,16251.000000,1.000000,15.000000,,,,0.000000,4.000000,4.000000,4.000000,4.000000,4.000000,100.000000,,,,,,,,,,,,,,,,,,,
1618379032.461129,112.000000,0.000000,4298.974121,4281.538574,4223.077148,4248.717773,4309.230957,450.000000,1.000000,15.000000,,,,0.000000,4.000000,4.000000,4.000000,4.000000,4.000000,100.000000,,,,,,,,56.000000,0.000000,0.297980,0.580322,0.288330,-0.700928,1.000504,0.047364,-0.164553,-13.493249,3.055242,60.907642
1618379032.468947,113.000000,0.000000,4298.974121,4276.922852,4221.538574,4249.743652,4308.717773,450.000000,1.000000,15.000000,,,,0.000000,4.000000,4.000000,4.000000,4.000000,4.000000,100.000000,,,,,,,,,,,,,,,,,,,
1618379032.476664,114.000000,0.000000,4301.025879,4278.974121,4222.563965,4248.717773,4305.641113,450.000000,1.000000,15.000000,,,,0.000000,4.000000,4.000000,4.000000,4.000000,4.000000,100.000000,,,,,,,,57.000000,0.000000,0.297980,0.580322,0.288330,-0.700928,0.982437,0.058595,-0.166506,-13.400046,5.800301,59.303032
1618379032.484481,115.000000,0.000000,4295.384766,4280.512695,4223.077148,4251.794922,4307.179688,16251.000000,1.000000,15.000000,,,,0.000000,4.000000,4.000000,4.000000,4.000000,4.000000,100.000000,,,,,,,,,,,,,,,,,,,
1618379032.492298,116.000000,0.000000,4287.179688,4275.384766,4217.436035,4251.794922,4298.974121,450.000000,1.000000,15.000000,,,,0.000000,4.000000,4.000000,4.000000,4.000000,4.000000,100.000000,,,,,,,,58.000000,0.000000,0.297980,0.580322,0.288330,-0.700928,1.000504,0.047364,-0.164553,-13.375980,4.562302,59.892605
1618379032.500116,117.000000,0.000000,4288.205078,4267.179688,4213.333496,4249.230957,4291.282227,450.000000,1.000000,15.000000,,,,0.000000,4.000000,4.000000,4.000000,4.000000,4.000000,100.000000,,,,,,,,,,,,,,,,,,,
1618379032.507933,118.000000,0.000000,4297.948730,4267.692383,4222.563965,4257.948730,4303.077148,450.000000,1.000000,15.000000,,,,0.000000,4.000000,4.000000,4.000000,4.000000,4.000000,100.000000,,,,,,,,59.000000,0.000000,0.297744,0.580322,0.288574,-0.700928,0.992203,0.059083,-0.166506,-13.414135,3.388288,60.423218
1618379032.515750,119.000000,0.000000,4301.538574,4271.794922,4232.307617,4267.692383,4314.358887,16251.000000,1.000000,15.000000,,,,0.000000,4.000000,4.000000,4.000000,4.000000,4.000000,100.000000,,,,,,,,,,,,,,,,,,,
1618379032.523567,120.000000,0.000000,4297.948730,4268.205078,4229.743652,4261.025879,4310.256348,450.000000,1.000000,15.000000,,,,0.000000,4.000000,4.000000,4.000000,4.000000,4.000000,100.000000,,,,,,,,60.000000,0.000000,0.297744,0.580322,0.288574,-0.700928,0.996109,0.064454,-0.158206,-13.508290,6.219673,58.986679
1618379032.531385,121.000000,0.000000,4301.025879,4270.256348,4221.538574,4249.743652,4306.153809,450.000000,1.000000,15.000000,,,,0.000000,4.000000,4.000000,4.000000,4.000000,4.000000,100.000000,,,,,,,,,,,,,,,,,,,
1618379032.539202,122.000000,0.000000,4305.641113,4277.436035,4221.025879,4243.077148,4308.205078,450.000000,1.000000,15.000000,,,,0.000000,4.000000,4.000000,4.000000,4.000000,4.000000,100.000000,,,,,,,,61.000000,0.000000,0.297744,0.580322,0.288574,-0.700928,0.996109,0.052247,-0.164065,-13.473399,4.939737,59.488255
1618379032.547019,123.000000,0.000000,4303.077148,4273.846191,4226.153809,4239.487305,4305.641113,16251.000000,1.000000,15.000000,,,,0.000000,4.000000,4.000000,4.000000,4.000000,4.000000,100.000000,,,,,,,,,,,,,,,,,,,
1618379032.554736,124.000000,0.000000,4303.077148,4272.820313,4227.692383,4238.974121,4298.461426,450.000000,1.000000,15.000000,,,,0.000000,4.000000,4.000000,4.000000,4.000000,4.000000,100.000000,,,,,,,,62.000000,0.000000,0.297744,0.580322,0.288574,-0.700928,0.995132,0.048829,-0.160159,-13.561628,3.787794,60.119122
1618379032.562553,125.000000,0.000000,4304.615234,4283.077148,4221.538574,4238.461426,4296.922852,450.000000,1.000000,15.000000,,,,0.000000,4.000000,4.000000,4.000000,4.000000,4.000000,100.000000,,,,,,,,,,,,,,,,,,,
1618379032.570370,126.000000,0.000000,4293.846191,4279.487305,4212.820313,4233.846191,4289.743652,450.000000,1.000000,15.000000,,,,0.000000,4.000000,4.000000,4.000000,4.000000,4.000000,100.000000,,,,,,,,63.000000,0.000000,0.297645,0.580078,0.288574,-0.701172,1.004898,0.056641,-0.175296,-13.461588,6.698860,60.686897
1618379032.578188,127.000000,0.000000,4282.563965,4265.128418,4214.358887,4234.358887,4277.948730,233.000000,1.000000,15.000000,,,,0.000000,4.000000,4.000000,4.000000,4.000000,4.000000,100.000000,0.972656,100.000000,4.000000,4.000000,4.000000,4.000000,4.000000,,,,,,,,,,,,
1618379032.586005,0.000000,0.000000,4289.230957,4269.743652,4225.641113,4239.487305,4281.538574,450.000000,1.000000,15.000000,,,,0.000000,4.000000,4.000000,4.000000,4.000000,4.000000,100.000000,,,,,,,,0.000000,0.000000,0.297645,0.580078,0.288574,-0.701172,0.988785,0.064454,-0.150393,-13.431368,5.191559,59.164177
1618379032.593822,1.000000,0.000000,4294.358887,4273.846191,4227.179688,4234.871582,4286.153809,450.000000,1.000000,15.000000,,,,0.000000,4.000000,4.000000,4.000000,4.000000,4.000000,100.000000,,,,,,,,,,,,,,,,,,,
1618379032.601639,2.000000,0.000000,4286.153809,4263.077148,4220.512695,4224.102539,4282.051270,16194.000000,1.000000,15.000000,,,,0.000000,4.000000,4.000000,4.000000,4.000000,4.000000,100.000000,,,,,,,,1.000000,0.000000,0.297408,0.580078,0.288818,-0.701172,0.999527,0.053712,-0.158206,-13.344354,4.014434,57.853542
1618379032.609456,3.000000,0.000000,4282.051270,4260.512695,4218.461426,4223.077148,4280.512695,450.000000,1.000000,15.000000,,,,0.000000,4.000000,4.000000,4.000000,4.000000,4.000000,100.000000,,,,,,,,,,,,,,,,,,,
1618379032.617173,4.000000,0.000000,4285.128418,4265.641113,4222.563965,4229.230957,4282.051270,16290.000000,1.000000,15.000000,,,,0.000000,4.000000,4.000000,4.000000,4.000000,4.000000,100.000000,,,,,,,,2.000000,0.000000,0.297408,0.580078,0.288818,-0.701172,1.002457,0.055177,-0.175296,-13.385672,3.074652,58.588062
1618379032.624990,5.000000,0.000000,4286.666504,4267.692383,4224.102539,4235.384766,4288.205078,450.000000,1.000000,15.000000,,,,0.000000,4.000000,4.000000,4.000000,4.000000,4.000000,100.000000,,,,,,,,,,,,,,,,,,,
1618379032.632808,6.000000,0.000000,4288.205078,4268.717773,4221.538574,4240.512695,4299.487305,16097.000000,1.000000,15.000000,,,,0.000000,4.000000,4.000000,4.000000,4.000000,4.000000,100.000000,,,,,,,,3.000000,0.000000,0.297645,0.580078,0.288574,-0.701172,0.980484,0.053712,-0.159182,-13.422857,5.937401,59.189316
1618379032.640625,7.000000,0.000000,4294.871582,4273.846191,4221.538574,4241.538574,4300.512695,450.000000,1.000000,15.000000,,,,0.000000,4.000000,4.000000,4.000000,4.000000,4.000000,100.000000,,,,,,,,,,,,,,,,,,,
1618379032.648442,8.000000,0.000000,4301.538574,4280.512695,4222.051270,4241.538574,4297.948730,450.000000,1.000000,15.000000,,,,0.000000,4.000000,4.000000,4.000000,4.000000,4.000000,100.000000,,,,,,,,4.000000,0.000000,0.297645,0.580078,0.288574,-0.701172,0.993179,0.049317,-0.159670,-13.516141,4.685692,59.550999
1618379032.656259,9.000000,0.000000,4302.051270,4281.538574,4221.538574,4239.487305,4297.436035,16262.000000,1.000000,15.000000,,,,0.000000,4.000000,4.000000,4.000000,4.000000,4.000000,100.000000,,,,,,,,,,,,,,,,,,,
1618379032.664077,10.000000,0.000000,4292.307617,4280.000000,4225.641113,4234.871582,4291.794922,450.000000,1.000000,15.000000,,,,0.000000,4.000000,4.000000,4.000000,4.000000,4.000000,100.000000,,,,,,,,5.000000,0.000000,0.297069,0.580078,0.288574,-0.701416,0.970230,0.067872,-0.176761,-13.360834,3.319892,60.055958
1618379032.671894,11.000000,0.000000,4287.692383,4281.025879,4233.333496,4237.436035,4289.743652,16155.000000,1.000000,15.000000,,,,0.000000,4.000000,4.000000,4.000000,4.000000,4.000000,100.000000,,,,,,,,,,,,,,,,,,,
1618379032.679711,12.000000,0.000000,4302.051270,4279.487305,4238.461426,4242.563965,4297.948730,450.000000,1.000000,15.000000,,,,0.000000,4.000000,4.000000,4.000000,4.000000,4.000000,100.000000,,,,,,,,6.000000,0.000000,0.297069,0.580078,0.288574,-0.701416,0.994156,0.055665,-0.173342,-13.400504,2.329934,60.510422
1618379032.687429,13.000000,0.000000,4317.948730,4284.102539,4241.538574,4246.153809,4308.717773,450.000000,1.000000,15.000000,,,,0.000000,4.000000,4.000000,4.000000,4.000000,4.000000,100.000000,,,,,,,,,,,,,,,,,,,
1618379032.695246,14.000000,0.000000,4322.051270,4296.922852,4246.666504,4255.897461,4318.974121,450.000000,1.000000,15.000000,,,,0.000000,4.000000,4.000000,4.000000,4.000000,4.000000,100.000000,,,,,,,,7.000000,0.000000,0.296592,0.580322,0.288574,-0.701416,0.993179,0.077150,-0.171878,-13.316576,5.267155,59.065163
1618379032.703063,15.000000,0.000000,4321.538574,4301.538574,4249.230957,4265.128418,4322.563965,16155.000000,1.000000,15.000000,,,,0.000000,4.000000,4.000000,4.000000,4.000000,4.000000,100.000000,,,,,,,,,,,,,,,,,,,
1618379032.710880,16.000000,0.000000,4321.538574,4300.000000,4246.666504,4263.077148,4318.974121,0.000000,1.000000,15.000000,,,,0.000000,4.000000,4.000000,4.000000,4.000000,4.000000,100.000000,,,,,,,,8.000000,0.000000,0.297405,0.580322,0.288330,-0.701172,0.981460,0.049317,-0.167483,-13.300857,8.030285,59.558891
1618379032.718698,17.000000,0.000000,4323.589844,4306.153809,4249.230957,4265.128418,4322.563965,0.000000,1.000000,15.000000,,,,0.000000,4.000000,4.000000,4.000000,4.000000,4.000000,100.000000,,,,,,,,,,,,,,,,,,,
1618379032.726515,18.000000,0.000000,4328.205078,4307.692383,4254.871582,4274.358887,4332.307617,0.000000,1.000000,15.000000,,,,0.000000,4.000000,4.000000,4.000000,4.000000,4.000000,100.000000,,,,,,,,9.000000,0.000000,0.296928,0.580566,0.288330,-0.701172,0.982925,0.059083,-0.164065,-13.466155,6.629103,60.063061
1618379032.734332,19.000000,0.000000,4327.692383,4300.000000,4254.871582,4270.256348,4330.256348,0.000000,1.000000,15.000000,,,,0.000000,4.000000,4.000000,4.000000,4.000000,4.000000,100.000000,,,,,,,,,,,,,,,,,,,
1618379032.742149,20.000000,0.000000,4325.128418,4297.436035,4247.179688,4264.102539,4323.077148,0.000000,1.000000,15.000000,,,,0.000000,4.000000,4.000000,4.000000,4.000000,4.000000,100.000000,,,,,,,,10.000000,0.000000,0.296928,0.580566,0.288330,-0.701172,0.990250,0.054200,-0.166995,-13.375663,9.256038,58.602722
1618379032.749867,21.000000,0.000000,4330.769043,4303.077148,4240.512695,4276.922852,4328.717773,0.000000,1.000000,15.000000,,,,0.000000,4.000000,4.000000,4.000000,4.000000,4.000000,100.000000,,,,,,,,,,,,,,,,,,,
1618379032.757685,22.000000,0.000000,4336.410156,4306.153809,4249.743652,4287.179688,4336.410156,0.000000,1.000000,15.000000,,,,0.000000,4.000000,4.000000,4.000000,4.000000,4.000000,100.000000,,,,,,,,11.000000,0.000000,0.296928,0.580566,0.288330,-0.701172,0.992691,0.070314,-0.162600,-13.533481,7.672465,59.142693
1618379032.765502,23.000000,0.000000,4333.846191,4310.256348,4263.589844,4277.948730,4329.743652,0.000000,1.000000,15.000000,,,,0.000000,4.000000,4.000000,4.000000,4.000000,4.000000,100.000000,,,,,,,,,,,,,,,,,,,
1618379032.773320,24.000000,0.000000,4329.743652,4320.512695,4266.666504,4267.692383,4318.974121,0.000000,1.000000,15.000000,,,,0.000000,4.000000,4.000000,4.000000,4.000000,4.000000,100.000000,,,,,,,,12.000000,0.000000,0.296928,0.580566,0.288330,-0.701172,0.990250,0.068849,-0.165530,-13.795147,10.075433,57.774391
1618379032.781137,25.000000,0.000000,4325.128418,4327.179688,4264.615234,4267.692383,4315.897461,0.000000,1.000000,15.000000,,,,0.000000,4.000000,4.000000,4.000000,4.000000,4.000000,100.000000,,,,,,,,,,,,,,,,,,,
1618379032.788955,26.000000,0.000000,4323.077148,4325.128418,4266.666504,4269.230957,4315.897461,0.000000,1.000000,15.000000,,,,0.000000,4.000000,4.000000,4.000000,4.000000,4.000000,100.000000,,,,,,,,13.000000,0.000000,0.297027,0.580811,0.288330,-0.700928,0.999527,0.071290,-0.169924,-13.671755,8.409921,58.457012
1618379032.796772,27.000000,0.000000,4322.051270,4315.897461,4264.615234,4268.205078,4310.769043,0.000000,1.000000,15.000000,,,,0.000000,4.000000,4.000000,4.000000,4.000000,4.000000,100.000000,,,,,,,,,,,,,,,,,,,
1618379032.804590,28.000000,0.000000,4318.461426,4310.256348,4258.461426,4263.589844,4303.589844,0.000000,1.000000,15.000000,,,,0.000000,4.000000,4.000000,4.000000,4.000000,4.000000,100.000000,,,,,,,,14.000000,0.000000,0.297027,0.580811,0.288330,-0.700928,0.987320,0.070314,-0.156741,-13.740149,6.851144,59.011555
1618379032.812407,29.000000,0.000000,4317.436035,4315.384766,4254.871582,4261.538574,4303.077148,0.000000,1.000000,15.000000,,,,0.000000,4.000000,4.000000,4.000000,4.000000,4.000000,100.000000,,,,,,,,,,,,,,,,,,,
1618379032.820225,30.000000,0.000000,4318.461426,4320.000000,4257.948730,4266.153809,4305.128418,0.000000,1.000000,15.000000,,,,0.000000,4.000000,4.000000,4.000000,4.000000,4.000000,100.000000,,,,,,,,15.000000,0.000000,0.297027,0.580811,0.288330,-0.700928,0.982925,0.062013,-0.163577,-13.801702,5.448245,59.630276
1618379032.827942,31.000000,0.000000,4317.948730,4314.871582,4264.102539,4268.205078,4310.769043,0.000000,1.000000,15.000000,,,,0.000000,4.000000,4.000000,4.000000,4.000000,4.000000,100.000000,,,,,,,,,,,,,,,,,,,
1618379032.835759,32.000000,0.000000,4313.333496,4305.128418,4267.179688,4257.436035,4308.205078,0.000000,1.000000,15.000000,,,,0.000000,4.000000,4.000000,4.000000,4.000000,4.000000,100.000000,,,,,,,,16.000000,0.000000,0.297027,0.580811,0.288330,-0.700928,1.001480,0.043458,-0.177249,-13.737470,4.185636,60.007675
1618379032.843576,33.000000,0.000000,4311.794922,4305.641113,4267.179688,4250.256348,4298.461426,0.000000,1.000000,15.000000,,,,0.000000,4.000000,4.000000,4.000000,4.000000,4.000000,100.000000,,,,,,,,,,,,,,,,,,,
1618379032.851393,34.000000,0.000000,4317.436035,4312.820313,4269.230957,4259.487305,4301.025879,0.000000,1.000000,15.000000,,,,0.000000,4.000000,4.000000,4.000000,4.000000,4.000000,100.000000,,,,,,,,17.000000,0.000000,0.297027,0.580811,0.288330,-0.700928,0.998550,0.049805,-0.158206,-13.619845,6.877471,58.612690
1618379032.859210,35.000000,0.000000,4320.000000,4314.871582,4272.820313,4267.692383,4307.692383,0.000000,1.000000,15.000000,,,,0.000000,4.000000,4.000000,4.000000,4.000000,4.000000,100.000000,,,,,,,,,,,,,,,,,,,
1618379032.867027,36.000000,0.000000,4317.948730,4315.384766,4274.871582,4265.641113,4303.077148,0.000000,1.000000,15.000000,,,,0.000000,4.000000,4.000000,4.000000,4.000000,4.000000,100.000000,,,,,,,,18.000000,0.000000,0.297027,0.580811,0.288330,-0.700928,1.005386,0.062989,-0.175784,-13.573799,5.651386,59.271297
1618379032.874844,37.000000,0.000000,4313.333496,4314.358887,4272.307617,4262.051270,4295.384766,0.000000,1.000000,15.000000,,,,0.000000,4.000000,4.000000,4.000000,4.000000,4.000000,100.000000,,,,,,,,,,,,,,,,,,,
1618379032.882661,38.000000,0.000000,4313.846191,4310.769043,4268.205078,4264.615234,4297.948730,0.000000,1.000000,15.000000,,,,0.000000,4.000000,4.000000,4.000000,4.000000,4.000000,100.000000,,,,,,,,19.000000,0.000000,0.297027,0.580811,0.288330,-0.700928,0.997086,0.058595,-0.165042,-13.532357,4.368463,59.684597
1618379032.890377,39.000000,0.000000,4316.922852,4313.846191,4269.743652,4271.282227,4302.563965,0.000000,1.000000,15.000000,,,,0.000000,4.000000,4.000000,4.000000,4.000000,4.000000,100.000000,,,,,,,,,,,,,,,,,,,
1618379032.898193,40.000000,0.000000,4309.743652,4315.897461,4269.743652,4264.102539,4293.846191,0.000000,1.000000,15.000000,,,,0.000000,4.000000,4.000000,4.000000,4.000000,4.000000,100.000000,,,,,,,,20.000000,0.000000,0.297264,0.580811,0.288086,-0.700928,1.001968,0.049317,-0.164553,-13.495060,3.213832,60.116383
1618379032.906009,41.000000,0.000000,4293.333496,4304.615234,4255.897461,4239.487305,4275.384766,0.000000,1.000000,15.000000,,,,0.000000,4.000000,4.000000,4.000000,4.000000,4.000000,100.000000,,,,,,,,,,,,,,,,,,,
1618379032.913825,42.000000,0.000000,4281.025879,4291.794922,4241.025879,4224.102539,4260.512695,0.000000,1.000000,15.000000,,,,0.000000,4.000000,4.000000,4.000000,4.000000,4.000000,100.000000,,,,,,,,21.000000,0.000000,0.296688,0.580811,0.288086,-0.701172,0.996597,0.053712,-0.161135,-13.521307,2.114850,60.624619
1618379032.921543,43.000000,0.000000,4280.512695,4289.743652,4244.102539,4224.102539,4260.512695,0.000000,1.000000,15.000000,,,,0.000000,4.000000,4.000000,4.000000,4.000000,4.000000,100.000000,,,,,,,,,,,,,,,,,,,
1618379032.929360,44.000000,0.000000,4293.846191,4303.077148,4257.436035,4232.820313,4282.051270,0.000000,1.000000,15.000000,,,,0.000000,4.000000,4.000000,4.000000,4.000000,4.000000,100.000000,,,,,,,,22.000000,0.000000,0.296450,0.580811,0.288330,-0.701172,0.992203,0.053712,-0.175296,-13.604745,1.185580,60.902584
1618379032.937177,45.000000,0.000000,4311.282227,4317.948730,4269.743652,4248.717773,4305.128418,0.000000,1.000000,15.000000,,,,0.000000,4.000000,4.000000,4.000000,4.000000,4.000000,100.000000,,,,,,,,,,,,,,,,,,,
1618379032.944994,46.000000,0.000000,4315.897461,4321.025879,4271.282227,4256.922852,4302.051270,0.000000,1.000000,15.000000,,,,0.000000,4.000000,4.000000,4.000000,4.000000,4.000000,100.000000,,,,,,,,23.000000,0.000000,0.296928,0.580566,0.288330,-0.701172,0.988296,0.067384,-0.171389,-13.620024,4.177421,61.392017
1618379032.952812,47.000000,0.000000,4305.641113,4313.846191,4252.820313,4239.487305,4282.051270,0.000000,1.000000,15.000000,,,,0.000000,4.000000,4.000000,4.000000,4.000000,4.000000,100.000000,,,,,,,,,,,,,,,,,,,
1618379032.960629,48.000000,0.000000,4291.282227,4304.102539,4235.384766,4214.358887,4272.820313,0.000000,1.000000,15.000000,,,,0.000000,4.000000,4.000000,4.000000,4.000000,4.000000,100.000000,,,,,,,,24.000000,0.000000,0.296688,0.580811,0.288086,-0.701172,0.996597,0.053712,-0.161135,-13.633775,6.929893,59.798782
1618379032.968446,49.000000,0.000000,4288.717773,4300.512695,4240.512695,4213.333496,4283.077148,0.000000,1.000000,15.000000,,,,0.000000,4.000000,4.000000,4.000000,4.000000,4.000000,100.000000,,,,,,,,,,,,,,,,,,,
1618379032.976264,50.000000,0.000000,4300.000000,4302.051270,4254.358887,4226.666504,4297.436035,0.000000,1.000000,15.000000,,,,0.000000,4.000000,4.000000,4.000000,4.000000,4.000000,100.000000,,,,,,,,25.000000,0.000000,0.296928,0.580566,0.288330,-0.701172,0.988296,0.067384,-0.171389,-13.646151,9.347303,60.398594
1618379032.984081,51.000000,0.000000,4306.153809,4301.538574,4257.948730,4233.846191,4295.897461,0.000000,1.000000,15.000000,,,,0.000000,4.000000,4.000000,4.000000,4.000000,4.000000,100.000000,,,,,,,,,,,,,,,,,,,
1618379032.991798,52.000000,0.000000,4301.025879,4300.000000,4256.410156,4237.948730,4283.589844,0.000000,1.000000,15.000000,,,,0.000000,4.000000,4.000000,4.000000,4.000000,4.000000,100.000000,,,,,,,,26.000000,0.000000,0.296351,0.580566,0.288330,-0.701416,0.989273,0.059083,-0.172854,-13.597474,7.754604,60.818794
1618379032.999615,53.000000,0.000000,4295.897461,4299.487305,4260.000000,4242.051270,4279.487305,0.000000,1.000000,15.000000,,,,0.000000,4.000000,4.000000,4.000000,4.000000,4.000000,100.000000,,,,,,,,,,,,,,,,,,,
1618379033.007432,54.000000,0.000000,4300.000000,4302.563965,4260.512695,4240.512695,4282.563965,0.000000,1.000000,15.000000,,,,0.000000,4.000000,4.000000,4.000000,4.000000,4.000000,100.000000,,,,,,,,27.000000,0.000000,0.296592,0.580322,0.288574,-0.701416,0.974136,0.056641,-0.156252,-13.673295,6.380990,61.316605
1618379033.015249,55.000000,0.000000,4303.077148,4305.641113,4251.282227,4231.794922,4281.025879,0.000000,1.000000,15.000000,,,,0.000000,4.000000,4.000000,4.000000,4.000000,4.000000,100.000000,,,,,,,,,,,,,,,,,,,
1618379033.023066,56.000000,0.000000,4303.589844,4308.205078,4248.717773,4230.256348,4283.077148,0.000000,1.000000,15.000000,,,,0.000000,4.000000,4.000000,4.000000,4.000000,4.000000,100.000000,,,,,,,,28.000000,0.000000,0.296014,0.580322,0.288574,-0.701660,0.992691,0.056641,-0.160647,-13.681719,8.853290,59.850544
1618379033.030883,57.000000,0.000000,4308.717773,4309.743652,4259.487305,4241.538574,4291.794922,0.000000,1.000000,15.000000,,,,0.000000,4.000000,4.000000,4.000000,4.000000,4.000000,100.000000,,,,,,,,,,,,,,,,,,,
1618379033.038700,58.000000,0.000000,4307.692383,4303.077148,4266.666504,4242.051270,4289.743652,0.000000,1.000000,15.000000,,,,0.000000,4.000000,4.000000,4.000000,4.000000,4.000000,100.000000,,,,,,,,29.000000,0.000000,0.295775,0.580322,0.288818,-0.701660,1.005386,0.055177,-0.166506,-13.689301,11.078360,60.325550
1618379033.046517,59.000000,0.000000,4301.538574,4300.000000,4258.974121,4233.333496,4288.717773,0.000000,1.000000,15.000000,,,,0.000000,4.000000,4.000000,4.000000,4.000000,4.000000,100.000000,,,,,,,,,,,,,,,,,,,
1618379033.054235,60.000000,0.000000,4310.769043,4307.692383,4252.307617,4240.512695,4305.128418,0.000000,1.000000,15.000000,,,,0.000000,4.000000,4.000000,4.000000,4.000000,4.000000,100.000000,,,,,,,,30.000000,0.000000,0.296354,0.580322,0.288818,-0.701416,1.005386,0.074708,-0.168460,-13.636309,13.140738,60.693237
1618379033.062052,61.000000,0.000000,4315.897461,4313.333496,4257.948730,4252.307617,4310.256348,0.000000,1.000000,15.000000,,,,0.000000,4.000000,4.000000,4.000000,4.000000,4.000000,100.000000,,,,,,,,,,,,,,,,,,,
1618379033.069869,62.000000,0.000000,4300.000000,4305.128418,4255.384766,4246.666504,4292.307617,0.000000,1.000000,15.000000,,,,0.000000,4.000000,4.000000,4.000000,4.000000,4.000000,100.000000,,,,,,,,31.000000,0.000000,0.296116,0.580322,0.289063,-0.701416,0.972671,0.067384,-0.160159,-13.768062,11.049065,61.083973
1618379033.077686,63.000000,0.000000,4293.333496,4296.922852,4241.538574,4234.358887,4283.589844,0.000000,1.000000,15.000000,,,,0.000000,4.000000,4.000000,4.000000,4.000000,4.000000,100.000000,0.972656,100.000000,4.000000,4.000000,4.000000,4.000000,4.000000,,,,,,,,,,,,
1618379033.085504,64.000000,0.000000,4306.153809,4300.000000,4240.000000,4234.871582,4292.307617,450.000000,1.000000,15.000000,,,,0.000000,4.000000,4.000000,4.000000,4.000000,4.000000,100.000000,,,,,,,,32.000000,0.000000,0.296354,0.580322,0.288818,-0.701416,0.996597,0.057618,-0.160159,-13.707193,9.286189,61.375820
1618379033.093321,65.000000,0.000000,4310.769043,4308.717773,4253.846191,4245.128418,4295.384766,450.000000,1.000000,15.000000,,,,0.000000,4.000000,4.000000,4.000000,4.000000,4.000000,100.000000,,,,,,,,,,,,,,,,,,,
1618379033.101138,66.000000,0.000000,4307.692383,4308.717773,4262.563965,4251.282227,4294.358887,16235.000000,1.000000,15.000000,,,,0.000000,4.000000,4.000000,4.000000,4.000000,4.000000,100.000000,,,,,,,,33.000000,0.000000,0.296931,0.580322,0.288818,-0.701172,0.981949,0.052735,-0.165042,-13.592597,7.819232,61.638481
1618379033.108955,67.000000,0.000000,4307.179688,4294.358887,4256.922852,4246.666504,4297.948730,450.000000,1.000000,15.000000,,,,0.000000,4.000000,4.000000,4.000000,4.000000,4.000000,100.000000,,,,,,,,,,,,,,,,,,,
1618379033.116773,68.000000,0.000000,4302.563965,4289.230957,4248.205078,4242.563965,4296.410156,16265.000000,1.000000,15.000000,,,,0.000000,4.000000,4.000000,4.000000,4.000000,4.000000,100.000000,,,,,,,,34.000000,0.000000,0.296691,0.580566,0.288574,-0.701172,0.984878,0.051270,-0.159182,-13.668906,6.319524,61.934692
1618379033.124488,69.000000,0.000000,4302.051270,4302.051270,4236.410156,4247.692383,4288.205078,450.000000,1.000000,15.000000,,,,0.000000,4.000000,4.000000,4.000000,4.000000,4.000000,100.000000,,,,,,,,,,,,,,,,,,,
1618379033.132304,70.000000,0.000000,4300.512695,4302.563965,4223.589844,4248.205078,4278.461426,16185.000000,1.000000,15.000000,,,,0.000000,4.000000,4.000000,4.000000,4.000000,4.000000,100.000000,,,,,,,,35.000000,0.000000,0.296691,0.580566,0.288574,-0.701172,1.000992,0.063478,-0.160647,-13.737584,8.857786,60.227375
1618379033.140021,71.000000,0.000000,4302.051270,4294.871582,4224.102539,4245.641113,4281.538574,450.000000,1.000000,15.000000,,,,0.000000,4.000000,4.000000,4.000000,4.000000,4.000000,100.000000,,,,,,,,,,,,,,,,,,,
1618379033.147838,72.000000,0.000000,4313.846191,4296.410156,4229.230957,4249.230957,4297.436035,450.000000,1.000000,15.000000,,,,0.000000,4.000000,4.000000,4.000000,4.000000,4.000000,100.000000,,,,,,,,36.000000,0.000000,0.296691,0.580566,0.288574,-0.701172,0.985367,0.057130,-0.163577,-13.859210,7.254223,60.664700
1618379033.155655,73.000000,0.000000,4313.846191,4300.512695,4228.205078,4246.666504,4298.974121,16248.000000,1.000000,15.000000,,,,0.000000,4.000000,4.000000,4.000000,4.000000,4.000000,100.000000,,,,,,,,,,,,,,,,,,,
1618379033.163472,74.000000,0.000000,4309.743652,4301.538574,4228.717773,4236.922852,4290.256348,450.000000,1.000000,15.000000,,,,0.000000,4.000000,4.000000,4.000000,4.000000,4.000000,100.000000,,,,,,,,37.000000,0.000000,0.296928,0.580566,0.288330,-0.701172,0.987808,0.063478,-0.155764,-13.789227,9.758831,61.058289
1618379033.171289,75.000000,0.000000,4315.384766,4306.153809,4234.358887,4238.461426,4296.410156,16191.000000,1.000000,15.000000,,,,0.000000,4.000000,4.000000,4.000000,4.000000,4.000000,100.000000,,,,,,,,,,,,,,,,,,,
1618379033.179106,76.000000,0.000000,4318.461426,4310.769043,4240.000000,4245.128418,4307.179688,450.000000,1.000000,15.000000,,,,0.000000,4.000000,4.000000,4.000000,4.000000,4.000000,100.000000,,,,,,,,38.000000,0.000000,0.296928,0.580566,0.288330,-0.701172,0.990738,0.057618,-0.176761,-13.845873,8.065164,61.472336
1618379033.186923,77.000000,0.000000,4320.000000,4316.410156,4238.461426,4241.538574,4305.641113,450.000000,1.000000,15.000000,,,,0.000000,4.000000,4.000000,4.000000,4.000000,4.000000,100.000000,,,,,,,,,,,,,,,,,,,
1618379033.194740,78.000000,0.000000,4320.512695,4316.922852,4232.307617,4234.358887,4301.538574,450.000000,1.000000,15.000000,,,,0.000000,4.000000,4.000000,4.000000,4.000000,4.000000,100.000000,,,,,,,,39.000000,0.000000,0.296688,0.580811,0.288086,-0.701172,0.993667,0.061524,-0.163577,-13.956670,6.600678,61.844975
1618379033.202458,79.000000,0.000000,4314.358887,4312.820313,4230.256348,4237.948730,4302.563965,16191.000000,1.000000,15.000000,,,,0.000000,4.000000,4.000000,4.000000,4.000000,4.000000,100.000000,,,,,,,,,,,,,,,,,,,
1618379033.210275,80.000000,0.000000,4312.820313,4315.384766,4237.436035,4246.666504,4300.512695,450.000000,1.000000,15.000000,,,,0.000000,4.000000,4.000000,4.000000,4.000000,4.000000,100.000000,,,,,,,,40.000000,0.000000,0.296928,0.580566,0.288330,-0.701172,0.997574,0.061524,-0.171389,-13.996572,5.103195,62.120537
1618379033.218092,81.000000,0.000000,4316.410156,4317.436035,4243.077148,4246.666504,4295.384766,450.000000,1.000000,15.000000,,,,0.000000,4.000000,4.000000,4.000000,4.000000,4.000000,100.000000,,,,,,,,,,,,,,,,,,,
1618379033.225910,82.000000,0.000000,4315.384766,4316.922852,4241.025879,4244.615234,4297.948730,450.000000,1.000000,15.000000,,,,0.000000,4.000000,4.000000,4.000000,4.000000,4.000000,100.000000,,,,,,,,41.000000,0.000000,0.296928,0.580566,0.288330,-0.701172,0.992203,0.054200,-0.167483,-14.032483,7.882720,60.454453
1618379033.233727,83.000000,0.000000,4315.384766,4315.384766,4236.922852,4243.077148,4303.077148,16191.000000,1.000000,15.000000,,,,0.000000,4.000000,4.000000,4.000000,4.000000,4.000000,100.000000,,,,,,,,,,,,,,,,,,,
1618379033.241544,84.000000,0.000000,4315.384766,4310.256348,4235.897461,4237.436035,4296.410156,450.000000,1.000000,15.000000,,,,0.000000,4.000000,4.000000,4.000000,4.000000,4.000000,100.000000,,,,,,,,42.000000,0.000000,0.296928,0.580566,0.288330,-0.701172,0.989761,0.053712,-0.162600,-14.064804,6.376664,60.869064
1618379033.249361,85.000000,0.000000,4315.897461,4311.282227,4240.000000,4238.974121,4290.769043,450.000000,1.000000,15.000000,,,,0.000000,4.000000,4.000000,4.000000,4.000000,4.000000,100.000000,,,,,,,,,,,,,,,,,,,
1618379033.257179,86.000000,0.000000,4320.000000,4313.846191,4247.179688,4249.743652,4293.846191,450.000000,1.000000,15.000000,,,,0.000000,4.000000,4.000000,4.000000,4.000000,4.000000,100.000000,,,,,,,,43.000000,0.000000,0.296592,0.580322,0.288574,-0.701416,0.996597,0.060548,-0.166018,-14.093892,5.021214,61.122589
1618379033.264996,87.000000,0.000000,4321.025879,4307.179688,4244.615234,4250.256348,4293.333496,16191.000000,1.000000,15.000000,,,,0.000000,4.000000,4.000000,4.000000,4.000000,4.000000,100.000000,,,,,,,,,,,,,,,,,,,
1618379033.272713,88.000000,0.000000,4318.974121,4305.128418,4237.436035,4242.051270,4289.230957,450.000000,1.000000,15.000000,,,,0.000000,4.000000,4.000000,4.000000,4.000000,4.000000,100.000000,,,,,,,,44.000000,0.000000,0.296592,0.580322,0.288574,-0.701416,0.993667,0.044434,-0.171389,-14.000441,7.689306,59.436668
1618379033.280531,89.000000,0.000000,4324.102539,4314.871582,4241.025879,4244.102539,4294.358887,450.000000,1.000000,15.000000,,,,0.000000,4.000000,4.000000,4.000000,4.000000,4.000000,100.000000,,,,,,,,,,,,,,,,,,,
1618379033.288348,90.000000,0.000000,4331.282227,4313.333496,4240.512695,4246.153809,4302.563965,450.000000,1.000000,15.000000,,,,0.000000,4.000000,4.000000,4.000000,4.000000,4.000000,100.000000,,,,,,,,45.000000,0.000000,0.296354,0.580322,0.288818,-0.701416,0.984878,0.057130,-0.176761,-13.916335,6.082961,57.979153
1618379033.296165,91.000000,0.000000,4323.077148,4302.051270,4233.846191,4239.487305,4298.461426,16191.000000,1.000000,15.000000,,,,0.000000,4.000000,4.000000,4.000000,4.000000,4.000000,100.000000,,,,,,,,,,,,,,,,,,,
1618379033.303982,92.000000,0.000000,4312.820313,4307.179688,4239.487305,4244.102539,4292.820313,450.000000,1.000000,15.000000,,,,0.000000,4.000000,4.000000,4.000000,4.000000,4.000000,100.000000,,,,,,,,46.000000,0.000000,0.296116,0.580322,0.289063,-0.701416,0.995132,0.060548,-0.162112,-13.840639,4.697065,58.641296
1618379033.311800,93.000000,0.000000,4326.666504,4316.410156,4240.000000,4248.717773,4298.461426,450.000000,1.000000,15.000000,,,,0.000000,4.000000,4.000000,4.000000,4.000000,4.000000,100.000000,,,,,,,,,,,,,,,,,,,
1618379033.319617,94.000000,0.000000,4337.948730,4313.333496,4228.205078,4238.974121,4300.512695,450.000000,1.000000,15.000000,,,,0.000000,4.000000,4.000000,4.000000,4.000000,4.000000,100.000000,,,,,,,,47.000000,0.000000,0.296594,0.580078,0.289063,-0.701416,0.998062,0.048341,-0.173831,-13.832329,3.509574,59.297043
1618379033.327434,95.000000,0.000000,4326.666504,4312.307617,4230.769043,4233.846191,4294.358887,16191.000000,1.000000,15.000000,,,,0.000000,4.000000,4.000000,4.000000,4.000000,4.000000,100.000000,,,,,,,,,,,,,,,,,,,
1618379033.335251,96.000000,0.000000,4311.282227,4315.897461,4240.000000,4234.871582,4285.641113,450.000000,1.000000,15.000000,,,,0.000000,4.000000,4.000000,4.000000,4.000000,4.000000,100.000000,,,,,,,,48.000000,0.000000,0.296356,0.580078,0.289307,-0.701416,0.998550,0.067872,-0.156741,-13.765034,2.321201,57.853489
1618379033.342969,97.000000,0.000000,4304.615234,4315.384766,4234.871582,4231.794922,4278.461426,450.000000,1.000000,15.000000,,,,0.000000,4.000000,4.000000,4.000000,4.000000,4.000000,100.000000,,,,,,,,,,,,,,,,,,,
1618379033.350786,98.000000,0.000000,4306.666504,4314.358887,4231.794922,4231.794922,4284.102539,450.000000,1.000000,15.000000,,,,0.000000,4.000000,4.000000,4.000000,4.000000,4.000000,100.000000,,,,,,,,49.000000,0.000000,0.295777,0.580078,0.289307,-0.701660,0.987320,0.065919,-0.164553,-13.704469,1.371297,58.647831
1618379033.358603,99.000000,0.000000,4315.897461,4314.358887,4240.512695,4230.769043,4295.384766,16191.000000,1.000000,15.000000,,,,0.000000,4.000000,4.000000,4.000000,4.000000,4.000000,100.000000,,,,,,,,,,,,,,,,,,,
1618379033.366421,100.000000,0.000000,4318.974121,4311.282227,4244.615234,4228.717773,4295.384766,450.000000,1.000000,15.000000,,,,0.000000,4.000000,4.000000,4.000000,4.000000,4.000000,100.000000,,,,,,,,50.000000,0.000000,0.296595,0.579834,0.289551,-0.701416,0.996597,0.058106,-0.177249,-13.769590,4.524013,57.448647
1618379033.374238,101.000000,0.000000,4310.256348,4310.256348,4243.077148,4231.282227,4288.717773,450.000000,1.000000,15.000000,,,,0.000000,4.000000,4.000000,4.000000,4.000000,4.000000,100.000000,,,,,,,,,,,,,,,,,,,
1618379033.382055,102.000000,0.000000,4310.769043,4312.820313,4246.666504,4231.282227,4288.717773,450.000000,1.000000,15.000000,,,,0.000000,4.000000,4.000000,4.000000,4.000000,4.000000,100.000000,,,,,,,,51.000000,0.000000,0.296595,0.579834,0.289551,-0.701416,0.996597,0.062989,-0.157717,-13.828200,3.413642,58.104027
1618379033.389872,103.000000,0.000000,4316.410156,4312.307617,4247.692383,4220.512695,4290.769043,16191.000000,1.000000,15.000000,,,,0.000000,4.000000,4.000000,4.000000,4.000000,4.000000,100.000000,,,,,,,,,,,,,,,,,,,
1618379033.397690,104.000000,0.000000,4312.307617,4309.743652,4244.102539,4214.358887,4289.230957,450.000000,1.000000,15.000000,,,,0.000000,4.000000,4.000000,4.000000,4.000000,4.000000,100.000000,,,,,,,,52.000000,0.000000,0.296017,0.579834,0.289551,-0.701660,0.997086,0.068849,-0.176272,-13.761318,6.242492,56.779778
1618379033.405407,105.000000,0.000000,4305.128418,4312.820313,4241.538574,4216.922852,4284.102539,450.000000,1.000000,15.000000,,,,0.000000,4.000000,4.000000,4.000000,4.000000,4.000000,100.000000,,,,,,,,,,,,,,,,,,,
1618379033.413224,106.000000,0.000000,4293.333496,4311.794922,4233.846191,4211.282227,4271.282227,450.000000,1.000000,15.000000,,,,0.000000,4.000000,4.000000,4.000000,4.000000,4.000000,100.000000,,,,,,,,53.000000,0.000000,0.296017,0.579834,0.289551,-0.701660,0.983413,0.058595,-0.170413,-13.820755,8.668827,55.707581
1618379033.421041,107.000000,0.000000,4284.615234,4301.538574,4228.205078,4203.589844,4263.589844,16191.000000,1.000000,15.000000,,,,0.000000,4.000000,4.000000,4.000000,4.000000,4.000000,100.000000,,,,,,,,,,,,,,,,,,,
1618379033.428858,108.000000,0.000000,4291.794922,4303.077148,4235.897461,4214.871582,4269.230957,450.000000,1.000000,15.000000,,,,0.000000,4.000000,4.000000,4.000000,4.000000,4.000000,100.000000,,,,,,,,54.000000,0.000000,0.296595,0.579834,0.289551,-0.701416,0.996597,0.062989,-0.157717,-13.874249,7.143975,56.537067
1618379033.436675,109.000000,0.000000,4297.948730,4310.256348,4245.128418,4227.179688,4273.333496,450.000000,1.000000,15.000000,,,,0.000000,4.000000,4.000000,4.000000,4.000000,4.000000,100.000000,,,,,,,,,,,,,,,,,,,
1618379033.444492,110.000000,0.000000,4297.948730,4306.153809,4244.102539,4222.051270,4275.897461,450.000000,1.000000,15.000000,,,,0.000000,4.000000,4.000000,4.000000,4.000000,4.000000,100.000000,,,,,,,,55.000000,0.000000,0.296017,0.579834,0.289551,-0.701660,0.983413,0.058595,-0.170413,-13.922393,9.480161,55.489143
1618379033.452309,111.000000,0.000000,4303.589844,4302.051270,4242.563965,4212.307617,4280.512695,16191.000000,1.000000,15.000000,,,,0.000000,4.000000,4.000000,4.000000,4.000000,4.000000,100.000000,,,,,,,,,,,,,,,,,,,
1618379033.460026,112.000000,0.000000,4308.717773,4303.589844,4242.563965,4209.743652,4282.563965,450.000000,1.000000,15.000000,,,,0.000000,4.000000,4.000000,4.000000,4.000000,4.000000,100.000000,,,,,,,,56.000000,0.000000,0.296017,0.579834,0.289551,-0.701660,0.986343,0.066896,-0.165530,-13.905907,7.874176,56.519920
1618379033.467844,113.000000,0.000000,4301.538574,4298.974121,4234.358887,4210.769043,4277.948730,450.000000,1.000000,15.000000,,,,0.000000,4.000000,4.000000,4.000000,4.000000,4.000000,100.000000,,,,,,,,,,,,,,,,,,,
1618379033.475661,114.000000,0.000000,4291.794922,4287.692383,4231.794922,4213.846191,4276.922852,450.000000,1.000000,15.000000,,,,0.000000,4.000000,4.000000,4.000000,4.000000,4.000000,100.000000,,,,,,,,57.000000,0.000000,0.296017,0.579834,0.289551,-0.701660,1.000015,0.077638,-0.175296,-13.771439,10.316788,57.208355
1618379033.483478,115.000000,0.000000,4291.794922,4282.563965,4235.897461,4216.922852,4285.128418,16191.000000,1.000000,15.000000,,,,0.000000,4.000000,4.000000,4.000000,4.000000,4.000000,100.000000,,,,,,,,,,,,,,,,,,,
1618379033.491295,116.000000,0.000000,4291.282227,4286.666504,4231.282227,4214.358887,4282.051270,450.000000,1.000000,15.000000,,,,0.000000,4.000000,4.000000,4.000000,4.000000,4.000000,100.000000,,,,,,,,58.000000,0.000000,0.296017,0.579834,0.289551,-0.701660,0.997574,0.062501,-0.156741,-13.710233,8.447694,57.887764
1618379033.499113,117.000000,0.000000,4283.589844,4291.282227,4227.179688,4206.666504,4267.179688,450.000000,1.000000,15.000000,,,,0.000000,4.000000,4.000000,4.000000,4.000000,4.000000,100.000000,,,,,,,,,,,,,,,,,,,
1618379033.506930,118.000000,0.000000,4287.692383,4293.846191,4232.307617,4210.256348,4272.820313,450.000000,1.000000,15.000000,,,,0.000000,4.000000,4.000000,4.000000,4.000000,4.000000,100.000000,,,,,,,,59.000000,0.000000,0.296595,0.579834,0.289551,-0.701416,0.987320,0.059083,-0.158694,-13.774778,10.832954,56.764587
1618379033.514747,119.000000,0.000000,4303.077148,4298.461426,4237.948730,4227.179688,4292.820313,16191.000000,1.000000,15.000000,,,,0.000000,4.000000,4.000000,4.000000,4.000000,4.000000,100.000000,,,,,,,,,,,,,,,,,,,
1618379033.522564,120.000000,0.000000,4308.717773,4309.230957,4242.051270,4236.410156,4295.384766,450.000000,1.000000,15.000000,,,,0.000000,4.000000,4.000000,4.000000,4.000000,4.000000,100.000000,,,,,,,,60.000000,0.000000,0.296595,0.579834,0.289551,-0.701416,0.987320,0.062013,-0.163088,-13.713239,9.151505,57.428558
1618379033.530282,121.000000,0.000000,4308.717773,4316.410156,4250.769043,4239.487305,4289.743652,450.000000,1.000000,15.000000,,,,0.000000,4.000000,4.000000,4.000000,4.000000,4.000000,100.000000,,,,,,,,,,,,,,,,,,,
1618379033.538099,122.000000,0.000000,4315.384766,4317.436035,4252.820313,4242.563965,4293.333496,450.000000,1.000000,15.000000,,,,0.000000,4.000000,4.000000,4.000000,4.000000,4.000000,100.000000,,,,,,,,61.000000,0.000000,0.296595,0.579834,0.289551,-0.701416,0.989761,0.056641,-0.162112,-13.777484,11.227123,58.145760
1618379033.545916,123.000000,0.000000,4316.922852,4318.974121,4241.538574,4236.410156,4295.384766,16191.000000,1.000000,15.000000,,,,0.000000,4.000000,4.000000,4.000000,4.000000,4.000000,100.000000,,,,,,,,,,,,,,,,,,,
1618379033.553733,124.000000,0.000000,4309.743652,4315.897461,4241.025879,4224.615234,4290.769043,450.000000,1.000000,15.000000,,,,0.000000,4.000000,4.000000,4.000000,4.000000,4.000000,100.000000,,,,,,,,62.000000,0.000000,0.296833,0.579834,0.289307,-0.701416,1.003922,0.056153,-0.162600,-13.715673,13.154995,56.817337
1618379033.561550,125.000000,0.000000,4307.692383,4311.794922,4253.333496,4224.615234,4289.743652,450.000000,1.000000,15.000000,,,,0.000000,4.000000,4.000000,4.000000,4.000000,4.000000,100.000000,,,,,,,,,,,,,,,,,,,
1618379033.569367,126.000000,0.000000,4307.179688,4311.794922,4250.256348,4226.666504,4288.205078,450.000000,1.000000,15.000000,,,,0.000000,4.000000,4.000000,4.000000,4.000000,4.000000,100.000000,,,,,,,,63.000000,0.000000,0.296594,0.580078,0.289063,-0.701416,0.992203,0.062501,-0.157717,-13.719859,11.002080,57.595665
1618379033.577184,127.000000,0.000000,4299.487305,4309.230957,4233.333496,4213.846191,4282.051270,233.000000,1.000000,15.000000,,,,0.000000,4.000000,4.000000,4.000000,4.000000,4.000000,100.000000,1.000000,100.000000,4.000000,4.000000,4.000000,4.000000,4.000000,,,,,,,,,,,,
1618379033.585001,0.000000,0.000000,4295.897461,4307.179688,4223.589844,4204.615234,4281.025879,450.000000,1.000000,15.000000,,,,0.000000,4.000000,4.000000,4.000000,4.000000,4.000000,100.000000,,,,,,,,0.000000,0.000000,0.297408,0.580078,0.288818,-0.701172,0.982437,0.052735,-0.171878,-13.723627,9.303719,58.355972
1618379033.592718,1.000000,0.000000,4296.922852,4308.205078,4223.589844,4209.230957,4278.461426,450.000000,1.000000,15.000000,,,,0.000000,4.000000,4.000000,4.000000,4.000000,4.000000,100.000000,,,,,,,,,,,,,,,,,,,
1618379033.600535,2.000000,0.000000,4291.794922,4302.051270,4227.692383,4212.820313,4271.794922,16182.000000,1.000000,15.000000,,,,0.000000,4.000000,4.000000,4.000000,4.000000,4.000000,100.000000,,,,,,,,1.000000,0.000000,0.297408,0.580078,0.288818,-0.701172,1.000992,0.058106,-0.164065,-13.727017,7.775193,58.980434
1618379033.608353,3.000000,0.000000,4295.384766,4297.436035,4228.717773,4209.743652,4278.461426,450.000000,1.000000,15.000000,,,,0.000000,4.000000,4.000000,4.000000,4.000000,4.000000,100.000000,,,,,,,,,,,,,,,,,,,
1618379033.616170,4.000000,0.000000,4302.563965,4300.512695,4223.589844,4206.666504,4287.179688,16203.000000,1.000000,15.000000,,,,0.000000,4.000000,4.000000,4.000000,4.000000,4.000000,100.000000,,,,,,,,2.000000,0.000000,0.297408,0.580078,0.288818,-0.701172,0.984878,0.053223,-0.165530,-13.849700,6.459335,59.602264
1618379033.623987,5.000000,0.000000,4296.410156,4303.077148,4224.102539,4212.820313,4281.025879,450.000000,1.000000,15.000000,,,,0.000000,4.000000,4.000000,4.000000,4.000000,4.000000,100.000000,,,,,,,,,,,,,,,,,,,
1618379033.631805,6.000000,0.000000,4297.948730,4302.563965,4229.743652,4223.077148,4279.487305,16148.000000,1.000000,15.000000,,,,0.000000,4.000000,4.000000,4.000000,4.000000,4.000000,100.000000,,,,,,,,3.000000,0.000000,0.297645,0.580078,0.288574,-0.701172,0.991226,0.045899,-0.165042,-13.840484,4.975986,60.161915
1618379033.639622,7.000000,0.000000,4314.358887,4302.051270,4229.743652,4221.025879,4286.666504,450.000000,1.000000,15.000000,,,,0.000000,4.000000,4.000000,4.000000,4.000000,4.000000,100.000000,,,,,,,,,,,,,,,,,,,
1618379033.647439,8.000000,0.000000,4320.000000,4306.153809,4228.205078,4217.436035,4287.692383,450.000000,1.000000,15.000000,,,,0.000000,4.000000,4.000000,4.000000,4.000000,4.000000,100.000000,,,,,,,,4.000000,0.000000,0.297168,0.580322,0.288574,-0.701172,0.989761,0.049317,-0.166018,-13.892004,3.820419,60.665596
1618379033.655156,9.000000,0.000000,4316.922852,4316.410156,4235.897461,4228.717773,4291.282227,16206.000000,1.000000,15.000000,,,,0.000000,4.000000,4.000000,4.000000,4.000000,4.000000,100.000000,,,,,,,,,,,,,,,,,,,
1618379033.662973,10.000000,0.000000,4321.025879,4322.051270,4243.589844,4233.333496,4297.436035,450.000000,1.000000,15.000000,,,,0.000000,4.000000,4.000000,4.000000,4.000000,4.000000,100.000000,,,,,,,,5.000000,0.000000,0.297168,0.580322,0.288574,-0.701172,0.984390,0.050294,-0.147463,-13.818742,2.840223,60.879650
1618379033.670790,11.000000,0.000000,4322.563965,4315.384766,4236.922852,4218.461426,4291.794922,16227.000000,1.000000,15.000000,,,,0.000000,4.000000,4.000000,4.000000,4.000000,4.000000,100.000000,,,,,,,,,,,,,,,,,,,
1618379033.678607,12.000000,0.000000,4308.717773,4302.051270,4219.487305,4200.512695,4275.897461,450.000000,1.000000,15.000000,,,,0.000000,4.000000,4.000000,4.000000,4.000000,4.000000,100.000000,,,,,,,,6.000000,0.000000,0.297168,0.580322,0.288574,-0.701172,0.988785,0.061524,-0.175784,-13.752806,5.606785,61.251747
1618379033.686424,13.000000,0.000000,4287.692383,4289.743652,4201.538574,4188.205078,4261.538574,450.000000,1.000000,15.000000,,,,0.000000,4.000000,4.000000,4.000000,4.000000,4.000000,100.000000,,,,,,,,,,,,,,,,,,,
1618379033.694241,14.000000,0.000000,4283.589844,4284.615234,4203.589844,4190.256348,4261.025879,450.000000,1.000000,15.000000,,,,0.000000,4.000000,4.000000,4.000000,4.000000,4.000000,100.000000,,,,,,,,7.000000,0.000000,0.297645,0.580078,0.288574,-0.701172,0.982925,0.044923,-0.172366,-13.753278,4.328322,61.526814
1618379033.702058,15.000000,0.000000,4304.102539,4294.871582,4231.282227,4216.922852,4278.974121,16227.000000,1.000000,15.000000,,,,0.000000,4.000000,4.000000,4.000000,4.000000,4.000000,100.000000,,,,,,,,,,,,,,,,,,,
1618379033.709875,16.000000,0.000000,4317.948730,4304.615234,4248.205078,4238.461426,4296.410156,0.000000,1.000000,15.000000,,,,0.000000,4.000000,4.000000,4.000000,4.000000,4.000000,100.000000,,,,,,,,8.000000,0.000000,0.296831,0.580078,0.288818,-0.701416,0.991226,0.060548,-0.167971,-13.574258,3.117890,61.834194
1618379033.717592,17.000000,0.000000,4313.846191,4304.102539,4242.563965,4234.871582,4296.922852,0.000000,1.000000,15.000000,,,,0.000000,4.000000,4.000000,4.000000,4.000000,4.000000,100.000000,,,,,,,,,,,,,,,,,,,
1618379033.725408,18.000000,0.000000,4316.410156,4306.153809,4242.051270,4230.256348,4297.436035,0.000000,1.000000,15.000000,,,,0.000000,4.000000,4.000000,4.000000,4.000000,4.000000,100.000000,,,,,,,,9.000000,0.000000,0.297408,0.580078,0.288818,-0.701172,0.984390,0.049805,-0.165042,-13.592586,6.095946,60.196743
1618379033.733224,19.000000,0.000000,4323.589844,4306.666504,4255.384766,4234.358887,4300.000000,0.000000,1.000000,15.000000,,,,0.000000,4.000000,4.000000,4.000000,4.000000,4.000000,100.000000,,,,,,,,,,,,,,,,,,,
1618379033.741041,20.000000,0.000000,4319.487305,4301.538574,4265.128418,4234.358887,4300.000000,0.000000,1.000000,15.000000,,,,0.000000,4.000000,4.000000,4.000000,4.000000,4.000000,100.000000,,,,,,,,10.000000,0.000000,0.297408,0.580078,0.288818,-0.701172,0.979995,0.045899,-0.167971,-13.609080,4.768567,60.696941
1618379033.748857,21.000000,0.000000,4314.358887,4296.922852,4257.948730,4230.769043,4297.948730,0.000000,1.000000,15.000000,,,,0.000000,4.000000,4.000000,4.000000,4.000000,4.000000,100.000000,,,,,,,,,,,,,,,,,,,
1618379033.756574,22.000000,0.000000,4318.461426,4301.025879,4248.717773,4226.666504,4295.897461,0.000000,1.000000,15.000000,,,,0.000000,4.000000,4.000000,4.000000,4.000000,4.000000,100.000000,,,,,,,,11.000000,0.000000,0.297408,0.580078,0.288818,-0.701172,0.980484,0.062989,-0.157229,-13.564110,7.461925,59.113400
1618379033.764392,23.000000,0.000000,4324.102539,4311.282227,4253.846191,4224.102539,4300.512695,0.000000,1.000000,15.000000,,,,0.000000,4.000000,4.000000,4.000000,4.000000,4.000000,100.000000,,,,,,,,,,,,,,,,,,,
1618379033.772209,24.000000,0.000000,4317.948730,4309.230957,4252.307617,4222.051270,4301.538574,0.000000,1.000000,15.000000,,,,0.000000,4.000000,4.000000,4.000000,4.000000,4.000000,100.000000,,,,,,,,12.000000,0.000000,0.296831,0.580078,0.288818,-0.701416,0.985367,0.046876,-0.161135,-13.523637,6.057763,59.602306
1618379033.780026,25.000000,0.000000,4309.230957,4302.563965,4243.589844,4216.410156,4289.230957,0.000000,1.000000,15.000000,,,,0.000000,4.000000,4.000000,4.000000,4.000000,4.000000,100.000000,,,,,,,,,,,,,,,,,,,
1618379033.787844,26.000000,0.000000,4314.871582,4313.846191,4252.820313,4218.461426,4284.102539,0.000000,1.000000,15.000000,,,,0.000000,4.000000,4.000000,4.000000,4.000000,4.000000,100.000000,,,,,,,,13.000000,0.000000,0.297071,0.579834,0.289063,-0.701416,1.003922,0.066407,-0.182132,-13.666657,4.853833,60.221764
1618379033.795661,27.000000,0.000000,4315.384766,4319.487305,4265.128418,4225.128418,4288.717773,0.000000,1.000000,15.000000,,,,0.000000,4.000000,4.000000,4.000000,4.000000,4.000000,100.000000,,,,,,,,,,,,,,,,,,,
1618379033.803478,28.000000,0.000000,4304.102539,4300.512695,4254.358887,4221.025879,4283.589844,0.000000,1.000000,15.000000,,,,0.000000,4.000000,4.000000,4.000000,4.000000,4.000000,100.000000,,,,,,,,14.000000,0.000000,0.296833,0.579834,0.289307,-0.701416,0.997086,0.069337,-0.158694,-13.675745,3.830112,60.659649
1618379033.811295,29.000000,0.000000,4301.538574,4291.794922,4242.563965,4216.410156,4276.410156,0.000000,1.000000,15.000000,,,,0.000000,4.000000,4.000000,4.000000,4.000000,4.000000,100.000000,,,,,,,,,,,,,,,,,,,
1618379033.819113,30.000000,0.000000,4305.128418,4296.922852,4247.179688,4217.436035,4281.025879,0.000000,1.000000,15.000000,,,,0.000000,4.000000,4.000000,4.000000,4.000000,4.000000,100.000000,,,,,,,,15.000000,0.000000,0.297071,0.579834,0.289063,-0.701416,0.991226,0.060548,-0.171389,-13.743739,2.789131,61.233189
1618379033.826830,31.000000,0.000000,4300.000000,4295.897461,4248.205078,4217.436035,4282.563965,0.000000,1.000000,15.000000,,,,0.000000,4.000000,4.000000,4.000000,4.000000,4.000000,100.000000,,,,,,,,,,,,,,,,,,,
1618379033.834647,32.000000,0.000000,4293.846191,4299.487305,4243.077148,4216.410156,4273.333496,0.000000,1.000000,15.000000,,,,0.000000,4.000000,4.000000,4.000000,4.000000,4.000000,100.000000,,,,,,,,16.000000,0.000000,0.297170,0.580078,0.289063,-0.701172,0.984878,0.062989,-0.168460,-13.685304,5.620617,59.775467
1618379033.842464,33.000000,0.000000,4293.333496,4305.641113,4245.128418,4221.538574,4269.743652,0.000000,1.000000,15.000000,,,,0.000000,4.000000,4.000000,4.000000,4.000000,4.000000,100.000000,,,,,,,,,,,,,,,,,,,
1618379033.850282,34.000000,0.000000,4289.743652,4300.000000,4245.128418,4218.974121,4271.282227,0.000000,1.000000,15.000000,,,,0.000000,4.000000,4.000000,4.000000,4.000000,4.000000,100.000000,,,,,,,,17.000000,0.000000,0.297170,0.580078,0.289063,-0.701172,0.982437,0.069337,-0.167483,-13.572896,4.400587,60.377613
1618379033.858099,35.000000,0.000000,4281.538574,4285.128418,4228.717773,4205.641113,4264.615234,0.000000,1.000000,15.000000,,,,0.000000,4.000000,4.000000,4.000000,4.000000,4.000000,100.000000,,,,,,,,,,,,,,,,,,,
1618379033.865916,36.000000,0.000000,4281.538574,4281.538574,4214.871582,4199.487305,4261.538574,0.000000,1.000000,15.000000,,,,0.000000,4.000000,4.000000,4.000000,4.000000,4.000000,100.000000,,,,,,,,18.000000,0.000000,0.297408,0.580078,0.288818,-0.701172,0.985855,0.073243,-0.152834,-13.531545,3.302559,60.799911
1618379033.873734,37.000000,0.000000,4290.256348,4290.769043,4225.128418,4206.153809,4268.717773,0.000000,1.000000,15.000000,,,,0.000000,4.000000,4.000000,4.000000,4.000000,4.000000,100.000000,,,,,,,,,,,,,,,,,,,
1618379033.881551,38.000000,0.000000,4293.333496,4294.358887,4235.384766,4213.333496,4275.897461,0.000000,1.000000,15.000000,,,,0.000000,4.000000,4.000000,4.000000,4.000000,4.000000,100.000000,,,,,,,,19.000000,0.000000,0.297408,0.580078,0.288818,-0.701172,0.996597,0.056153,-0.159182,-13.374698,2.194703,61.239792
1618379033.889368,39.000000,0.000000,4291.794922,4285.128418,4228.717773,4213.333496,4278.461426,0.000000,1.000000,15.000000,,,,0.000000,4.000000,4.000000,4.000000,4.000000,4.000000,100.000000,,,,,,,,,,,,,,,,,,,
1618379033.897085,40.000000,0.000000,4293.846191,4281.538574,4227.179688,4210.769043,4278.974121,0.000000,1.000000,15.000000,,,,0.000000,4.000000,4.000000,4.000000,4.000000,4.000000,100.000000,,,,,,,,20.000000,0.000000,0.297408,0.580078,0.288818,-0.701172,0.989761,0.074708,-0.165530,-13.472796,1.377079,61.635689
1618379033.904902,41.000000,0.000000,4300.000000,4290.769043,4233.846191,4211.794922,4284.615234,0.000000,1.000000,15.000000,,,,0.000000,4.000000,4.000000,4.000000,4.000000,4.000000,100.000000,,,,,,,,,,,,,,,,,,,
1618379033.912719,42.000000,0.000000,4299.487305,4290.769043,4233.333496,4210.769043,4285.641113,0.000000,1.000000,15.000000,,,,0.000000,4.000000,4.000000,4.000000,4.000000,4.000000,100.000000,,,,,,,,21.000000,0.000000,0.297408,0.580078,0.288818,-0.701172,0.985855,0.073243,-0.152834,-13.501270,4.289955,60.077904
1618379033.920536,43.000000,0.000000,4288.205078,4282.563965,4223.589844,4205.128418,4270.769043,0.000000,1.000000,15.000000,,,,0.000000,4.000000,4.000000,4.000000,4.000000,4.000000,100.000000,,,,,,,,,,,,,,,,,,,
1618379033.928353,44.000000,0.000000,4278.461426,4280.512695,4211.794922,4200.000000,4253.846191,0.000000,1.000000,15.000000,,,,0.000000,4.000000,4.000000,4.000000,4.000000,4.000000,100.000000,,,,,,,,22.000000,0.000000,0.297408,0.580078,0.288818,-0.701172,0.989761,0.074708,-0.165530,-13.586712,3.262806,60.589989
1618379033.936170,45.000000,0.000000,4278.461426,4278.461426,4206.153809,4200.000000,4249.230957,0.000000,1.000000,15.000000,,,,0.000000,4.000000,4.000000,4.000000,4.000000,4.000000,100.000000,,,,,,,,,,,,,,,,,,,
1618379033.943987,46.000000,0.000000,4276.410156,4280.000000,4207.692383,4203.589844,4250.256348,0.000000,1.000000,15.000000,,,,0.000000,4.000000,4.000000,4.000000,4.000000,4.000000,100.000000,,,,,,,,23.000000,0.000000,0.297408,0.580078,0.288818,-0.701172,0.983413,0.060548,-0.169924,-13.603794,6.046924,60.991047
1618379033.951804,47.000000,0.000000,4268.205078,4286.666504,4215.897461,4205.641113,4251.282227,0.000000,1.000000,15.000000,,,,0.000000,4.000000,4.000000,4.000000,4.000000,4.000000,100.000000,,,,,,,,,,,,,,,,,,,
1618379033.959522,48.000000,0.000000,4271.794922,4282.563965,4222.051270,4205.128418,4253.333496,0.000000,1.000000,15.000000,,,,0.000000,4.000000,4.000000,4.000000,4.000000,4.000000,100.000000,,,,,,,,24.000000,0.000000,0.297883,0.579834,0.288818,-0.701172,0.980972,0.072755,-0.158206,-13.499537,4.724447,61.352005
1618379033.967339,49.000000,0.000000,4285.641113,4279.487305,4219.487305,4211.794922,4256.922852,0.000000,1.000000,15.000000,,,,0.000000,4.000000,4.000000,4.000000,4.000000,4.000000,100.000000,,,,,,,,,,,,,,,,,,,
1618379033.975156,50.000000,0.000000,4288.205078,4286.153809,4212.820313,4217.948730,4260.512695,0.000000,1.000000,15.000000,,,,0.000000,4.000000,4.000000,4.000000,4.000000,4.000000,100.000000,,,,,,,,25.000000,0.000000,0.297646,0.579834,0.289063,-0.701172,0.991226,0.073732,-0.168948,-13.585153,3.653849,61.676861
1618379033.982974,51.000000,0.000000,4282.563965,4281.538574,4202.563965,4206.666504,4255.897461,0.000000,1.000000,15.000000,,,,0.000000,4.000000,4.000000,4.000000,4.000000,4.000000,100.000000,,,,,,,,,,,,,,,,,,,
1618379033.990791,52.000000,0.000000,4288.205078,4274.358887,4201.025879,4195.897461,4254.871582,0.000000,1.000000,15.000000,,,,0.000000,4.000000,4.000000,4.000000,4.000000,4.000000,100.000000,,,,,,,,26.000000,0.000000,0.297646,0.579834,0.289063,-0.701172,0.995621,0.054200,-0.164065,-13.781837,2.690310,62.029053
1618379033.998608,53.000000,0.000000,4298.461426,4289.230957,4220.000000,4207.692383,4272.820313,0.000000,1.000000,15.000000,,,,0.000000,4.000000,4.000000,4.000000,4.000000,4.000000,100.000000,,,,,,,,,,,,,,,,,,,
1618379034.006425,54.000000,0.000000,4300.512695,4300.512695,4229.230957,4222.051270,4286.153809,0.000000,1.000000,15.000000,,,,0.000000,4.000000,4.000000,4.000000,4.000000,4.000000,100.000000,,,,,,,,27.000000,0.000000,0.297883,0.579834,0.288818,-0.701172,0.998062,0.054200,-0.164553,-13.899037,5.591494,62.286205
1618379034.014243,55.000000,0.000000,4302.051270,4291.282227,4221.538574,4220.000000,4278.461426,0.000000,1.000000,15.000000,,,,0.000000,4.000000,4.000000,4.000000,4.000000,4.000000,100.000000,,,,,,,,,,,,,,,,,,,
1618379034.021960,56.000000,0.000000,4312.307617,4287.692383,4223.589844,4217.948730,4278.461426,0.000000,1.000000,15.000000,,,,0.000000,4.000000,4.000000,4.000000,4.000000,4.000000,100.000000,,,,,,,,28.000000,0.000000,0.297883,0.579834,0.288818,-0.701172,0.983413,0.062013,-0.165530,-13.825071,4.314560,62.517643
1618379034.029778,57.000000,0.000000,4320.512695,4291.282227,4232.307617,4222.563965,4293.846191,0.000000,1.000000,15.000000,,,,0.000000,4.000000,4.000000,4.000000,4.000000,4.000000,100.000000,,,,,,,,,,,,,,,,,,,
1618379034.037595,58.000000,0.000000,4316.410156,4284.615234,4231.794922,4222.563965,4295.897461,0.000000,1.000000,15.000000,,,,0.000000,4.000000,4.000000,4.000000,4.000000,4.000000,100.000000,,,,,,,,29.000000,0.000000,0.297308,0.579834,0.288818,-0.701416,0.996109,0.051759,-0.170901,-13.878133,3.045689,62.845570
1618379034.045413,59.000000,0.000000,4314.358887,4285.128418,4229.230957,4222.563965,4287.692383,0.000000,1.000000,15.000000,,,,0.000000,4.000000,4.000000,4.000000,4.000000,4.000000,100.000000,,,,,,,,,,,,,,,,,,,
1618379034.053230,60.000000,0.000000,4314.871582,4295.384766,4232.820313,4222.051270,4284.615234,0.000000,1.000000,15.000000,,,,0.000000,4.000000,4.000000,4.000000,4.000000,4.000000,100.000000,,,,,,,,30.000000,0.000000,0.297308,0.579834,0.288818,-0.701416,0.982925,0.056641,-0.167483,-13.806258,2.023336,63.140705
1618379034.061048,61.000000,0.000000,4311.794922,4299.487305,4232.307617,4215.384766,4282.563965,0.000000,1.000000,15.000000,,,,0.000000,4.000000,4.000000,4.000000,4.000000,4.000000,100.000000,,,,,,,,,,,,,,,,,,,
1618379034.068865,62.000000,0.000000,4315.384766,4299.487305,4231.794922,4209.743652,4286.666504,0.000000,1.000000,15.000000,,,,0.000000,4.000000,4.000000,4.000000,4.000000,4.000000,100.000000,,,,,,,,31.000000,0.000000,0.297308,0.579834,0.288818,-0.701416,0.987808,0.050782,-0.155276,-13.741570,1.103218,63.286694
1618379034.076683,63.000000,0.000000,4324.615234,4301.025879,4238.461426,4212.307617,4296.922852,0.000000,1.000000,15.000000,,,,0.000000,4.000000,4.000000,4.000000,4.000000,4.000000,100.000000,1.000000,100.000000,4.000000,4.000000,4.000000,4.000000,4.000000,,,,,,,,,,,,
1618379034.084500,64.000000,0.000000,4326.153809,4301.538574,4241.025879,4214.871582,4299.487305,450.000000,1.000000,15.000000,,,,0.000000,4.000000,4.000000,4.000000,4.000000,4.000000,100.000000,,,,,,,,32.000000,0.000000,0.297308,0.579834,0.288818,-0.701416,1.000992,0.075685,-0.162600,-13.683352,0.275112,63.537712
1618379034.092318,65.000000,0.000000,4315.897461,4299.487305,4236.922852,4202.563965,4289.743652,450.000000,1.000000,15.000000,,,,0.000000,4.000000,4.000000,4.000000,4.000000,4.000000,100.000000,,,,,,,,,,,,,,,,,,,
1618379034.100034,66.000000,0.000000,4311.794922,4300.512695,4242.051270,4193.846191,4288.205078,16241.000000,1.000000,15.000000,,,,0.000000,4.000000,4.000000,4.000000,4.000000,4.000000,100.000000,,,,,,,,33.000000,0.000000,0.297308,0.579834,0.288818,-0.701416,0.980484,0.066896,-0.176761,-13.630954,3.357999,61.789726
1618379034.107849,67.000000,0.000000,4325.128418,4301.538574,4247.179688,4202.563965,4302.051270,450.000000,1.000000,15.000000,,,,0.000000,4.000000,4.000000,4.000000,4.000000,4.000000,100.000000,,,,,,,,,,,,,,,,,,,
1618379034.115566,68.000000,0.000000,4333.846191,4291.282227,4238.461426,4207.179688,4307.179688,16116.000000,1.000000,15.000000,,,,0.000000,4.000000,4.000000,4.000000,4.000000,4.000000,100.000000,,,,,,,,34.000000,0.000000,0.297308,0.579834,0.288818,-0.701416,0.988785,0.059571,-0.168460,-13.523981,2.244600,62.130627
1618379034.123383,69.000000,0.000000,4332.307617,4288.717773,4237.436035,4209.230957,4303.589844,450.000000,1.000000,15.000000,,,,0.000000,4.000000,4.000000,4.000000,4.000000,4.000000,100.000000,,,,,,,,,,,,,,,,,,,
1618379034.131200,70.000000,0.000000,4331.282227,4302.563965,4245.128418,4216.922852,4304.102539,16273.000000,1.000000,15.000000,,,,0.000000,4.000000,4.000000,4.000000,4.000000,4.000000,100.000000,,,,,,,,35.000000,0.000000,0.297784,0.579590,0.288818,-0.701416,0.982437,0.058106,-0.163088,-13.607152,1.362171,62.377625
1618379034.139017,71.000000,0.000000,4332.820313,4299.487305,4239.487305,4213.846191,4306.153809,450.000000,1.000000,15.000000,,,,0.000000,4.000000,4.000000,4.000000,4.000000,4.000000,100.000000,,,,,,,,,,,,,,,,,,,
1618379034.146834,72.000000,0.000000,4329.743652,4284.102539,4227.692383,4203.077148,4302.563965,450.000000,1.000000,15.000000,,,,0.000000,4.000000,4.000000,4.000000,4.000000,4.000000,100.000000,,,,,,,,36.000000,0.000000,0.297784,0.579590,0.288818,-0.701416,0.993667,0.060060,-0.166995,-13.562375,0.687615,62.659737
1618379034.154651,73.000000,0.000000,4326.666504,4290.769043,4231.794922,4202.051270,4300.000000,16155.000000,1.000000,15.000000,,,,0.000000,4.000000,4.000000,4.000000,4.000000,4.000000,100.000000,,,,,,,,,,,,,,,,,,,
1618379034.162468,74.000000,0.000000,4330.769043,4306.666504,4242.051270,4205.641113,4301.025879,450.000000,1.000000,15.000000,,,,0.000000,4.000000,4.000000,4.000000,4.000000,4.000000,100.000000,,,,,,,,37.000000,0.000000,0.297784,0.579590,0.288818,-0.701416,0.997574,0.064454,-0.168460,-13.641706,-0.039115,63.033268
1618379034.170286,75.000000,0.000000,4333.846191,4306.666504,4235.897461,4206.666504,4302.051270,16317.000000,1.000000,15.000000,,,,0.000000,4.000000,4.000000,4.000000,4.000000,4.000000,100.000000,,,,,,,,,,,,,,,,,,,
1618379034.178003,76.000000,0.000000,4331.794922,4302.051270,4225.128418,4208.205078,4300.000000,450.000000,1.000000,15.000000,,,,0.000000,4.000000,4.000000,4.000000,4.000000,4.000000,100.000000,,,,,,,,38.000000,0.000000,0.297784,0.579590,0.288818,-0.701416,0.996597,0.068360,-0.169436,-13.713104,3.194826,61.275909
1618379034.185820,77.000000,0.000000,4327.692383,4302.563965,4227.179688,4207.692383,4297.948730,450.000000,1.000000,15.000000,,,,0.000000,4.000000,4.000000,4.000000,4.000000,4.000000,100.000000,,,,,,,,,,,,,,,,,,,
1618379034.193637,78.000000,0.000000,4325.641113,4302.563965,4233.333496,4201.538574,4298.461426,450.000000,1.000000,15.000000,,,,0.000000,4.000000,4.000000,4.000000,4.000000,4.000000,100.000000,,,,,,,,39.000000,0.000000,0.297883,0.579834,0.288818,-0.701172,0.992691,0.056641,-0.170413,-13.777363,5.925927,61.668194
1618379034.201455,79.000000,0.000000,4327.692383,4303.077148,4231.794922,4197.948730,4298.974121,16317.000000,1.000000,15.000000,,,,0.000000,4.000000,4.000000,4.000000,4.000000,4.000000,100.000000,,,,,,,,,,,,,,,,,,,
1618379034.209272,80.000000,0.000000,4330.256348,4304.102539,4233.333496,4201.025879,4296.922852,450.000000,1.000000,15.000000,,,,0.000000,4.000000,4.000000,4.000000,4.000000,4.000000,100.000000,,,,,,,,40.000000,0.000000,0.297883,0.579834,0.288818,-0.701172,0.994644,0.058595,-0.166995,-13.715565,8.563364,60.047340
1618379034.217089,81.000000,0.000000,4327.692383,4307.179688,4241.025879,4206.153809,4296.410156,450.000000,1.000000,15.000000,,,,0.000000,4.000000,4.000000,4.000000,4.000000,4.000000,100.000000,,,,,,,,,,,,,,,,,,,
1618379034.224906,82.000000,0.000000,4326.666504,4311.282227,4241.025879,4208.205078,4298.461426,450.000000,1.000000,15.000000,,,,0.000000,4.000000,4.000000,4.000000,4.000000,4.000000,100.000000,,,,,,,,41.000000,0.000000,0.297883,0.579834,0.288818,-0.701172,0.989273,0.058595,-0.154299,-13.659946,10.996873,60.562481
1618379034.232724,83.000000,0.000000,4327.692383,4308.205078,4236.922852,4207.179688,4293.333496,16317.000000,1.000000,15.000000,,,,0.000000,4.000000,4.000000,4.000000,4.000000,4.000000,100.000000,,,,,,,,,,,,,,,,,,,
1618379034.240541,84.000000,0.000000,4322.051270,4305.128418,4240.000000,4202.051270,4284.102539,450.000000,1.000000,15.000000,,,,0.000000,4.000000,4.000000,4.000000,4.000000,4.000000,100.000000,,,,,,,,42.000000,0.000000,0.297883,0.579834,0.288818,-0.701172,0.996109,0.060060,-0.179690,-13.609889,9.179401,60.966293
1618379034.248258,85.000000,0.000000,4324.102539,4306.666504,4242.563965,4199.487305,4290.769043,450.000000,1.000000,15.000000,,,,0.000000,4.000000,4.000000,4.000000,4.000000,4.000000,100.000000,,,,,,,,,,,,,,,,,,,
1618379034.256074,86.000000,0.000000,4338.461426,4304.102539,4239.487305,4203.589844,4303.589844,450.000000,1.000000,15.000000,,,,0.000000,4.000000,4.000000,4.000000,4.000000,4.000000,100.000000,,,,,,,,43.000000,0.000000,0.297883,0.579834,0.288818,-0.701172,0.976089,0.056153,-0.149416,-13.624654,11.431676,61.389538
1618379034.263891,87.000000,0.000000,4344.615234,4304.102539,4234.871582,4207.179688,4297.948730,16317.000000,1.000000,15.000000,,,,0.000000,4.000000,4.000000,4.000000,4.000000,4.000000,100.000000,,,,,,,,,,,,,,,,,,,
1618379034.271707,88.000000,0.000000,4338.974121,4308.717773,4230.256348,4204.615234,4284.615234,450.000000,1.000000,15.000000,,,,0.000000,4.000000,4.000000,4.000000,4.000000,4.000000,100.000000,,,,,,,,44.000000,0.000000,0.297883,0.579834,0.288818,-0.701172,1.000015,0.064942,-0.166018,-13.637942,9.690354,61.770462
1618379034.279524,89.000000,0.000000,4331.282227,4308.205078,4228.205078,4203.589844,4287.179688,450.000000,1.000000,15.000000,,,,0.000000,4.000000,4.000000,4.000000,4.000000,4.000000,100.000000,,,,,,,,,,,,,,,,,,,
1618379034.287340,90.000000,0.000000,4324.102539,4301.025879,4226.666504,4209.743652,4293.846191,450.000000,1.000000,15.000000,,,,0.000000,4.000000,4.000000,4.000000,4.000000,4.000000,100.000000,,,,,,,,45.000000,0.000000,0.298120,0.579834,0.288574,-0.701172,0.989273,0.060548,-0.161135,-13.649901,11.891533,60.079567
1618379034.295058,91.000000,0.000000,4316.410156,4296.410156,4222.051270,4209.743652,4283.589844,16317.000000,1.000000,15.000000,,,,0.000000,4.000000,4.000000,4.000000,4.000000,4.000000,100.000000,,,,,,,,,,,,,,,,,,,
1618379034.302875,92.000000,0.000000,4315.384766,4295.897461,4217.436035,4202.563965,4274.871582,450.000000,1.000000,15.000000,,,,0.000000,4.000000,4.000000,4.000000,4.000000,4.000000,100.000000,,,,,,,,46.000000,0.000000,0.298120,0.579834,0.288574,-0.701172,0.990250,0.049317,-0.168948,-13.600849,9.984595,60.591484
1618379034.310692,93.000000,0.000000,4315.897461,4294.871582,4217.948730,4198.461426,4277.436035,450.000000,1.000000,15.000000,,,,0.000000,4.000000,4.000000,4.000000,4.000000,4.000000,100.000000,,,,,,,,,,,,,,,,,,,
1618379034.318510,94.000000,0.000000,4306.666504,4288.717773,4218.461426,4193.333496,4272.820313,450.000000,1.000000,15.000000,,,,0.000000,4.000000,4.000000,4.000000,4.000000,4.000000,100.000000,,,,,,,,47.000000,0.000000,0.298120,0.579834,0.288574,-0.701172,0.985367,0.058106,-0.163577,-13.616518,12.036719,59.018490
1618379034.326327,95.000000,0.000000,4296.410156,4282.051270,4213.846191,4187.179688,4267.179688,16317.000000,1.000000,15.000000,,,,0.000000,4.000000,4.000000,4.000000,4.000000,4.000000,100.000000,,,,,,,,,,,,,,,,,,,
1618379034.334144,96.000000,0.000000,4301.538574,4284.615234,4213.846191,4192.307617,4273.846191,450.000000,1.000000,15.000000,,,,0.000000,4.000000,4.000000,4.000000,4.000000,4.000000,100.000000,,,,,,,,48.000000,0.000000,0.298120,0.579834,0.288574,-0.701172,0.976089,0.067872,-0.165530,-13.510988,10.055448,59.636517
1618379034.341961,97.000000,0.000000,4316.922852,4289.230957,4220.000000,4204.615234,4285.641113,450.000000,1.000000,15.000000,,,,0.000000,4.000000,4.000000,4.000000,4.000000,4.000000,100.000000,,,,,,,,,,,,,,,,,,,
1618379034.349779,98.000000,0.000000,4317.436035,4283.589844,4221.025879,4201.538574,4288.717773,450.000000,1.000000,15.000000,,,,0.000000,4.000000,4.000000,4.000000,4.000000,4.000000,100.000000,,,,,,,,49.000000,0.000000,0.298693,0.579834,0.288574,-0.700928,0.982437,0.066896,-0.166995,-13.535644,8.451750,60.073109
1618379034.357496,99.000000,0.000000,4312.307617,4276.922852,4225.641113,4190.256348,4292.820313,16317.000000,1.000000,15.000000,,,,0.000000,4.000000,4.000000,4.000000,4.000000,4.000000,100.000000,,,,,,,,,,,,,,,,,,,
1618379034.365314,100.000000,0.000000,4316.410156,4282.563965,4233.333496,4190.769043,4298.461426,450.000000,1.000000,15.000000,,,,0.000000,4.000000,4.000000,4.000000,4.000000,4.000000,100.000000,,,,,,,,50.000000,0.000000,0.298693,0.579834,0.288574,-0.700928,0.998062,0.054688,-0.160647,-13.378386,7.008421,60.585670
1618379034.373131,101.000000,0.000000,4315.384766,4291.282227,4229.743652,4190.769043,4291.794922,450.000000,1.000000,15.000000,,,,0.000000,4.000000,4.000000,4.000000,4.000000,4.000000,100.000000,,,,,,,,,,,,,,,,,,,
1618379034.380949,102.000000,0.000000,4307.692383,4290.256348,4224.615234,4184.615234,4275.897461,450.000000,1.000000,15.000000,,,,0.000000,4.000000,4.000000,4.000000,4.000000,4.000000,100.000000,,,,,,,,51.000000,0.000000,0.298693,0.579834,0.288574,-0.700928,0.990738,0.056641,-0.169924,-13.476116,9.537608,60.987164
1618379034.388766,103.000000,0.000000,4310.256348,4289.743652,4229.743652,4188.205078,4274.871582,16317.000000,1.000000,15.000000,,,,0.000000,4.000000,4.000000,4.000000,4.000000,4.000000,100.000000,,,,,,,,,,,,,,,,,,,
1618379034.396584,104.000000,0.000000,4319.487305,4296.410156,4238.974121,4198.974121,4287.692383,450.000000,1.000000,15.000000,,,,0.000000,4.000000,4.000000,4.000000,4.000000,4.000000,100.000000,,,,,,,,52.000000,0.000000,0.298693,0.579834,0.288574,-0.700928,0.982437,0.066896,-0.166995,-13.504258,11.813877,59.494232
1618379034.404401,105.000000,0.000000,4316.922852,4303.077148,4235.384766,4200.000000,4290.256348,450.000000,1.000000,15.000000,,,,0.000000,4.000000,4.000000,4.000000,4.000000,4.000000,100.000000,,,,,,,,,,,,,,,,,,,
1618379034.412219,106.000000,0.000000,4310.769043,4298.974121,4226.153809,4192.820313,4286.153809,450.000000,1.000000,15.000000,,,,0.000000,4.000000,4.000000,4.000000,4.000000,4.000000,100.000000,,,,,,,,53.000000,0.000000,0.298693,0.579834,0.288574,-0.700928,0.990738,0.056641,-0.169924,-13.589401,13.862519,60.004868
1618379034.420036,107.000000,0.000000,4316.922852,4295.384766,4232.307617,4197.436035,4290.769043,16317.000000,1.000000,15.000000,,,,0.000000,4.000000,4.000000,4.000000,4.000000,4.000000,100.000000,,,,,,,,,,,,,,,,,,,
1618379034.427854,108.000000,0.000000,4323.077148,4301.025879,4247.179688,4208.717773,4294.358887,450.000000,1.000000,15.000000,,,,0.000000,4.000000,4.000000,4.000000,4.000000,4.000000,100.000000,,,,,,,,54.000000,0.000000,0.298693,0.579834,0.288574,-0.700928,0.982925,0.066896,-0.164065,-13.426768,11.937929,60.464439
1618379034.435671,109.000000,0.000000,4317.948730,4304.102539,4249.743652,4211.282227,4286.666504,450.000000,1.000000,15.000000,,,,0.000000,4.000000,4.000000,4.000000,4.000000,4.000000,100.000000,,,,,,,,,,,,,,,,,,,
1618379034.443388,110.000000,0.000000,4313.846191,4300.512695,4243.077148,4213.846191,4283.589844,450.000000,1.000000,15.000000,,,,0.000000,4.000000,4.000000,4.000000,4.000000,4.000000,100.000000,,,,,,,,55.000000,0.000000,0.298693,0.579834,0.288574,-0.700928,0.988296,0.063966,-0.165042,-13.519660,10.145983,60.937870
1618379034.451205,111.000000,0.000000,4310.256348,4292.820313,4236.410156,4213.333496,4288.717773,16317.000000,1.000000,15.000000,,,,0.000000,4.000000,4.000000,4.000000,4.000000,4.000000,100.000000,,,,,,,,,,,,,,,,,,,
1618379034.459021,112.000000,0.000000,4297.436035,4284.102539,4226.666504,4204.615234,4283.589844,450.000000,1.000000,15.000000,,,,0.000000,4.000000,4.000000,4.000000,4.000000,4.000000,100.000000,,,,,,,,56.000000,0.000000,0.299266,0.579834,0.288574,-0.700684,0.996597,0.062013,-0.166995,-13.722894,8.473415,61.304142
1618379034.466838,113.000000,0.000000,4292.307617,4282.563965,4216.410156,4200.000000,4274.358887,450.000000,1.000000,15.000000,,,,0.000000,4.000000,4.000000,4.000000,4.000000,4.000000,100.000000,,,,,,,,,,,,,,,,,,,
1618379034.474654,114.000000,0.000000,4305.128418,4291.282227,4221.025879,4207.179688,4275.897461,450.000000,1.000000,15.000000,,,,0.000000,4.000000,4.000000,4.000000,4.000000,4.000000,100.000000,,,,,,,,57.000000,0.000000,0.299030,0.579834,0.288818,-0.700684,1.000504,0.061524,-0.161135,-13.726357,6.968105,61.633789
1618379034.482471,115.000000,0.000000,4314.358887,4296.922852,4233.846191,4211.282227,4284.615234,16317.000000,1.000000,15.000000,,,,0.000000,4.000000,4.000000,4.000000,4.000000,4.000000,100.000000,,,,,,,,,,,,,,,,,,,
1618379034.490188,116.000000,0.000000,4294.358887,4281.538574,4225.641113,4191.794922,4274.358887,450.000000,1.000000,15.000000,,,,0.000000,4.000000,4.000000,4.000000,4.000000,4.000000,100.000000,,,,,,,,58.000000,0.000000,0.299030,0.579834,0.288818,-0.700684,0.993667,0.045411,-0.164065,-13.669660,9.441508,60.076191
1618379034.498005,117.000000,0.000000,4268.717773,4263.589844,4206.153809,4167.692383,4249.743652,450.000000,1.000000,15.000000,,,,0.000000,4.000000,4.000000,4.000000,4.000000,4.000000,100.000000,,,,,,,,,,,,,,,,,,,
1618379034.505822,118.000000,0.000000,4282.051270,4269.743652,4215.897461,4181.538574,4255.897461,450.000000,1.000000,15.000000,,,,0.000000,4.000000,4.000000,4.000000,4.000000,4.000000,100.000000,,,,,,,,59.000000,0.000000,0.299030,0.579834,0.288818,-0.700684,0.998062,0.047364,-0.167483,-13.618632,7.899204,60.528633
1618379034.513639,119.000000,0.000000,4310.256348,4284.615234,4243.077148,4212.307617,4283.589844,16317.000000,1.000000,15.000000,,,,0.000000,4.000000,4.000000,4.000000,4.000000,4.000000,100.000000,,,,,,,,,,,,,,,,,,,
1618379034.521456,120.000000,0.000000,4313.333496,4285.641113,4245.641113,4213.333496,4291.794922,450.000000,1.000000,15.000000,,,,0.000000,4.000000,4.000000,4.000000,4.000000,4.000000,100.000000,,,,,,,,60.000000,0.000000,0.299266,0.579834,0.288574,-0.700684,0.985855,0.048341,-0.176272,-13.752153,6.451315,60.935829
1618379034.529273,121.000000,0.000000,4305.641113,4279.487305,4232.820313,4201.538574,4286.153809,450.000000,1.000000,15.000000,,,,0.000000,4.000000,4.000000,4.000000,4.000000,4.000000,100.000000,,,,,,,,,,,,,,,,,,,
1618379034.537090,122.000000,0.000000,4300.512695,4275.384766,4230.769043,4200.000000,4283.589844,450.000000,1.000000,15.000000,,,,0.000000,4.000000,4.000000,4.000000,4.000000,4.000000,100.000000,,,,,,,,61.000000,0.000000,0.299030,0.579834,0.288818,-0.700684,0.991226,0.068360,-0.166506,-13.812507,5.148214,61.302307
1618379034.544907,123.000000,0.000000,4300.000000,4274.871582,4231.794922,4194.358887,4281.538574,16317.000000,1.000000,15.000000,,,,0.000000,4.000000,4.000000,4.000000,4.000000,4.000000,100.000000,,,,,,,,,,,,,,,,,,,
1618379034.552625,124.000000,0.000000,4305.128418,4275.897461,4230.256348,4189.743652,4275.384766,450.000000,1.000000,15.000000,,,,0.000000,4.000000,4.000000,4.000000,4.000000,4.000000,100.000000,,,,,,,,62.000000,0.000000,0.299030,0.579834,0.288818,-0.700684,0.994644,0.052735,-0.163577,-13.747194,3.915608,61.632133
1618379034.560442,125.000000,0.000000,4307.692383,4275.384766,4229.743652,4197.948730,4269.230957,450.000000,1.000000,15.000000,,,,0.000000,4.000000,4.000000,4.000000,4.000000,4.000000,100.000000,,,,,,,,,,,,,,,,,,,
1618379034.568259,126.000000,0.000000,4305.128418,4272.820313,4226.153809,4200.000000,4265.641113,450.000000,1.000000,15.000000,,,,0.000000,4.000000,4.000000,4.000000,4.000000,4.000000,100.000000,,,,,,,,63.000000,0.000000,0.299266,0.579834,0.288574,-0.700684,0.993667,0.060548,-0.163577,-13.688413,6.813893,61.928982
1618379034.576076,127.000000,0.000000,4303.077148,4268.717773,4228.717773,4193.333496,4265.128418,233.000000,1.000000,15.000000,,,,0.000000,4.000000,4.000000,4.000000,4.000000,4.000000,100.000000,1.000000,100.000000,4.000000,4.000000,4.000000,4.000000,4.000000,,,,,,,,,,,,
1618379034.583894,0.000000,0.000000,4300.512695,4264.615234,4236.410156,4193.846191,4263.589844,450.000000,1.000000,15.000000,,,,0.000000,4.000000,4.000000,4.000000,4.000000,4.000000,100.000000,,,,,,,,0.000000,0.000000,0.298457,0.579834,0.288818,-0.700928,0.979995,0.062989,-0.164065,-13.575694,5.414719,62.136326
1618379034.591711,1.000000,0.000000,4295.897461,4267.179688,4233.846191,4197.436035,4258.974121,450.000000,1.000000,15.000000,,,,0.000000,4.000000,4.000000,4.000000,4.000000,4.000000,100.000000,,,,,,,,,,,,,,,,,,,
1618379034.599528,2.000000,0.000000,4291.282227,4274.871582,4223.589844,4196.410156,4257.436035,16201.000000,1.000000,15.000000,,,,0.000000,4.000000,4.000000,4.000000,4.000000,4.000000,100.000000,,,,,,,,1.000000,0.000000,0.298931,0.579590,0.288818,-0.700928,0.998062,0.058106,-0.171878,-13.653693,7.983646,62.322937
1618379034.607345,3.000000,0.000000,4288.717773,4274.871582,4215.384766,4196.410156,4258.461426,450.000000,1.000000,15.000000,,,,0.000000,4.000000,4.000000,4.000000,4.000000,4.000000,100.000000,,,,,,,,,,,,,,,,,,,
1618379034.615163,4.000000,0.000000,4294.358887,4267.179688,4212.820313,4195.384766,4260.512695,16270.000000,1.000000,15.000000,,,,0.000000,4.000000,4.000000,4.000000,4.000000,4.000000,100.000000,,,,,,,,2.000000,0.000000,0.298695,0.579590,0.289063,-0.700928,1.005386,0.068360,-0.156741,-13.604262,6.467497,62.610519
1618379034.622880,5.000000,0.000000,4300.000000,4263.077148,4215.897461,4190.256348,4261.538574,450.000000,1.000000,15.000000,,,,0.000000,4.000000,4.000000,4.000000,4.000000,4.000000,100.000000,,,,,,,,,,,,,,,,,,,
1618379034.630698,6.000000,0.000000,4297.436035,4270.769043,4225.128418,4186.666504,4263.589844,16126.000000,1.000000,15.000000,,,,0.000000,4.000000,4.000000,4.000000,4.000000,4.000000,100.000000,,,,,,,,3.000000,0.000000,0.298695,0.579590,0.289063,-0.700928,0.986343,0.074708,-0.176272,-13.619589,5.222594,62.749710
1618379034.638515,7.000000,0.000000,4296.410156,4275.897461,4234.871582,4187.692383,4265.641113,450.000000,1.000000,15.000000,,,,0.000000,4.000000,4.000000,4.000000,4.000000,4.000000,100.000000,,,,,,,,,,,,,,,,,,,
1618379034.646333,8.000000,0.000000,4297.948730,4268.205078,4232.307617,4192.307617,4263.589844,450.000000,1.000000,15.000000,,,,0.000000,4.000000,4.000000,4.000000,4.000000,4.000000,100.000000,,,,,,,,4.000000,0.000000,0.299267,0.579590,0.289063,-0.700684,0.984390,0.058106,-0.157229,-13.633384,3.922735,62.934799
1618379034.654150,9.000000,0.000000,4293.846191,4262.563965,4224.615234,4195.384766,4262.563965,16262.000000,1.000000,15.000000,,,,0.000000,4.000000,4.000000,4.000000,4.000000,4.000000,100.000000,,,,,,,,,,,,,,,,,,,
1618379034.661968,10.000000,0.000000,4294.871582,4266.666504,4225.641113,4194.358887,4270.769043,450.000000,1.000000,15.000000,,,,0.000000,4.000000,4.000000,4.000000,4.000000,4.000000,100.000000,,,,,,,,5.000000,0.000000,0.299267,0.579590,0.289063,-0.700684,1.002945,0.067872,-0.161135,-13.645799,6.760491,61.127472
1618379034.669785,11.000000,0.000000,4300.512695,4267.179688,4228.717773,4189.230957,4274.358887,16150.000000,1.000000,15.000000,,,,0.000000,4.000000,4.000000,4.000000,4.000000,4.000000,100.000000,,,,,,,,,,,,,,,,,,,
1618379034.677603,12.000000,0.000000,4296.922852,4261.025879,4226.153809,4182.051270,4264.102539,450.000000,1.000000,15.000000,,,,0.000000,4.000000,4.000000,4.000000,4.000000,4.000000,100.000000,,,,,,,,6.000000,0.000000,0.298794,0.579834,0.289063,-0.700684,0.986343,0.053223,-0.157229,-13.656972,5.306842,61.355152
1618379034.685420,13.000000,0.000000,4291.282227,4260.000000,4222.051270,4183.589844,4254.358887,450.000000,1.000000,15.000000,,,,0.000000,4.000000,4.000000,4.000000,4.000000,4.000000,100.000000,,,,,,,,,,,,,,,,,,,
1618379034.693238,14.000000,0.000000,4285.641113,4256.410156,4216.922852,4187.692383,4243.589844,450.000000,1.000000,15.000000,,,,0.000000,4.000000,4.000000,4.000000,4.000000,4.000000,100.000000,,,,,,,,7.000000,0.000000,0.298794,0.579834,0.289063,-0.700684,0.993667,0.068849,-0.172854,-13.607213,4.058373,61.679699
1618379034.700955,15.000000,0.000000,4281.025879,4250.256348,4214.358887,4184.615234,4234.871582,16150.000000,1.000000,15.000000,,,,0.000000,4.000000,4.000000,4.000000,4.000000,4.000000,100.000000,,,,,,,,,,,,,,,,,,,
1618379034.708772,16.000000,0.000000,4287.179688,4249.743652,4214.871582,4186.153809,4242.051270,0.000000,1.000000,15.000000,,,,0.000000,4.000000,4.000000,4.000000,4.000000,4.000000,100.000000,,,,,,,,8.000000,0.000000,0.298558,0.579834,0.289307,-0.700684,0.997574,0.065919,-0.165042,-13.622245,6.822751,60.057697
1618379034.716589,17.000000,0.000000,4293.846191,4248.205078,4208.717773,4184.102539,4251.282227,0.000000,1.000000,15.000000,,,,0.000000,4.000000,4.000000,4.000000,4.000000,4.000000,100.000000,,,,,,,,,,,,,,,,,,,
