title:S15, start timestamp:1618379253.568175, stop timestamp:1618379364.514252, headset type:INSIGHT, headset serial:A2D202F3, headset firmware:932, channels:40, sampling rate:eeg_128;mot_64, samples:14196     , version:2.1, 
Timestamp,EEG.Counter,EEG.Interpolated,EEG.AF3,EEG.T7,EEG.Pz,EEG.T8,EEG.AF4,EEG.RawCq,EEG.Battery,EEG.BatteryPercent,MarkerIndex,MarkerType,MarkerValueInt,EEG.MarkerHardware,CQ.AF3,CQ.T7,CQ.Pz,CQ.T8,CQ.AF4,CQ.Overall,EQ.SampleRateQuality,EQ.OVERALL,EQ.AF3,EQ.T7,EQ.Pz,EQ.T8,EQ.AF4,MOT.CounterMems,MOT.InterpolatedMems,MOT.Q0,MOT.Q1,MOT.Q2,MOT.Q3,MOT.AccX,MOT.AccY,MOT.AccZ,MOT.MagX,MOT.MagY,MOT.MagZ
1618379253.568175,119.000000,0.000000,4232.307617,4223.589844,4178.461426,4149.230957,4208.717773,16273.000000,1.000000,15.000000,,,,0.000000,4.000000,4.000000,4.000000,4.000000,4.000000,100.000000,,,,,,,,,,,,,,,,,,,
1618379253.576091,120.000000,0.000000,4231.794922,4238.461426,4181.025879,4155.897461,4208.205078,450.000000,1.000000,15.000000,,,,0.000000,4.000000,4.000000,4.000000,4.000000,4.000000,100.000000,,,,,,,,60.000000,0.000000,0.342471,0.551270,0.336426,-0.682373,0.992203,0.090333,-0.171389,-13.181330,12.700703,58.279827
1618379253.583906,121.000000,0.000000,4238.461426,4241.025879,4189.743652,4177.948730,4225.641113,450.000000,1.000000,15.000000,,,,0.000000,4.000000,4.000000,4.000000,4.000000,4.000000,100.000000,,,,,,,,,,,,,,,,,,,
1618379253.591623,122.000000,0.000000,4236.410156,4232.820313,4191.282227,4172.820313,4227.692383,450.000000,1.000000,15.000000,,,,0.000000,4.000000,4.000000,4.000000,4.000000,4.000000,100.000000,,,,,,,,61.000000,0.000000,0.342711,0.551270,0.336182,-0.682373,0.982925,0.069825,-0.169436,-13.298766,10.832479,58.852089
1618379253.599439,123.000000,0.000000,4229.230957,4231.794922,4181.025879,4160.000000,4215.384766,16273.000000,1.000000,15.000000,,,,0.000000,4.000000,4.000000,4.000000,4.000000,4.000000,100.000000,,,,,,,,,,,,,,,,,,,
1618379253.607255,124.000000,0.000000,4233.846191,4230.769043,4179.487305,4165.128418,4215.384766,450.000000,1.000000,15.000000,,,,0.000000,4.000000,4.000000,4.000000,4.000000,4.000000,100.000000,,,,,,,,62.000000,0.000000,0.342711,0.551270,0.336182,-0.682373,0.990250,0.089357,-0.161135,-13.165196,9.151077,59.367123
1618379253.615071,125.000000,0.000000,4243.077148,4234.871582,4190.769043,4175.897461,4223.077148,450.000000,1.000000,15.000000,,,,0.000000,4.000000,4.000000,4.000000,4.000000,4.000000,100.000000,,,,,,,,,,,,,,,,,,,
1618379253.622887,126.000000,0.000000,4242.563965,4233.333496,4191.794922,4171.794922,4224.615234,450.000000,1.000000,15.000000,,,,0.000000,4.000000,4.000000,4.000000,4.000000,4.000000,100.000000,,,,,,,,63.000000,0.000000,0.342711,0.551270,0.336182,-0.682373,0.984390,0.073732,-0.173831,-13.104799,7.697631,59.890472
1618379253.630703,127.000000,0.000000,4237.436035,4222.563965,4181.025879,4165.641113,4215.384766,233.000000,1.000000,15.000000,,,,0.000000,4.000000,4.000000,4.000000,4.000000,4.000000,100.000000,1.000000,100.000000,4.000000,4.000000,4.000000,4.000000,4.000000,,,,,,,,,,,,
1618379253.638419,0.000000,0.000000,4235.384766,4228.205078,4177.436035,4173.846191,4209.230957,450.000000,1.000000,15.000000,,,,0.000000,4.000000,4.000000,4.000000,4.000000,4.000000,100.000000,,,,,,,,0.000000,0.000000,0.342950,0.551270,0.335938,-0.682373,0.995132,0.075196,-0.177249,-13.110258,10.217713,60.301670
1618379253.646235,1.000000,0.000000,4230.769043,4236.410156,4178.461426,4172.307617,4215.897461,450.000000,1.000000,15.000000,,,,0.000000,4.000000,4.000000,4.000000,4.000000,4.000000,100.000000,,,,,,,,,,,,,,,,,,,
1618379253.654051,2.000000,0.000000,4224.102539,4230.769043,4172.307617,4154.358887,4217.948730,16199.000000,1.000000,15.000000,,,,0.000000,4.000000,4.000000,4.000000,4.000000,4.000000,100.000000,,,,,,,,1.000000,0.000000,0.342558,0.551514,0.335938,-0.682373,0.979995,0.070802,-0.173831,-13.174985,8.657603,60.791378
1618379253.661867,3.000000,0.000000,4219.487305,4226.153809,4164.102539,4149.230957,4203.077148,450.000000,1.000000,15.000000,,,,0.000000,4.000000,4.000000,4.000000,4.000000,4.000000,100.000000,,,,,,,,,,,,,,,,,,,
1618379253.669684,4.000000,0.000000,4216.922852,4225.641113,4159.487305,4155.384766,4190.256348,16079.000000,1.000000,15.000000,,,,0.000000,4.000000,4.000000,4.000000,4.000000,4.000000,100.000000,,,,,,,,2.000000,0.000000,0.342310,0.551514,0.335693,-0.682617,1.002457,0.068849,-0.168948,-13.293056,7.313320,61.052666
1618379253.677500,5.000000,0.000000,4214.358887,4221.538574,4159.487305,4154.871582,4194.871582,450.000000,1.000000,15.000000,,,,0.000000,4.000000,4.000000,4.000000,4.000000,4.000000,100.000000,,,,,,,,,,,,,,,,,,,
1618379253.685416,6.000000,0.000000,4220.512695,4228.205078,4168.205078,4161.025879,4210.769043,16234.000000,1.000000,15.000000,,,,0.000000,4.000000,4.000000,4.000000,4.000000,4.000000,100.000000,,,,,,,,3.000000,0.000000,0.342310,0.551514,0.335693,-0.682617,0.992203,0.089357,-0.172366,-13.219872,9.871834,59.433552
1618379253.693233,7.000000,0.000000,4234.358887,4230.769043,4172.307617,4167.692383,4219.487305,450.000000,1.000000,15.000000,,,,0.000000,4.000000,4.000000,4.000000,4.000000,4.000000,100.000000,,,,,,,,,,,,,,,,,,,
1618379253.701049,8.000000,0.000000,4232.820313,4211.282227,4158.461426,4141.538574,4210.769043,450.000000,1.000000,15.000000,,,,0.000000,4.000000,4.000000,4.000000,4.000000,4.000000,100.000000,,,,,,,,4.000000,0.000000,0.342310,0.551514,0.335693,-0.682617,0.988785,0.088380,-0.179202,-13.333454,8.286496,59.890442
1618379253.708866,9.000000,0.000000,4223.589844,4208.205078,4145.641113,4123.077148,4205.641113,16095.000000,1.000000,15.000000,,,,0.000000,4.000000,4.000000,4.000000,4.000000,4.000000,100.000000,,,,,,,,,,,,,,,,,,,
1618379253.716682,10.000000,0.000000,4227.179688,4226.153809,4148.717773,4151.794922,4211.794922,450.000000,1.000000,15.000000,,,,0.000000,4.000000,4.000000,4.000000,4.000000,4.000000,100.000000,,,,,,,,5.000000,0.000000,0.342550,0.551514,0.335449,-0.682617,0.991714,0.080079,-0.173342,-13.316047,10.687877,58.507179
1618379253.724499,11.000000,0.000000,4228.717773,4224.615234,4154.871582,4176.922852,4207.692383,16357.000000,1.000000,15.000000,,,,0.000000,4.000000,4.000000,4.000000,4.000000,4.000000,100.000000,,,,,,,,,,,,,,,,,,,
1618379253.732315,12.000000,0.000000,4222.563965,4210.256348,4152.307617,4161.538574,4199.487305,450.000000,1.000000,15.000000,,,,0.000000,4.000000,4.000000,4.000000,4.000000,4.000000,100.000000,,,,,,,,6.000000,0.000000,0.342063,0.551514,0.335449,-0.682861,0.988296,0.094728,-0.175296,-13.180750,9.020935,58.937077
1618379253.740132,13.000000,0.000000,4229.230957,4215.384766,4151.282227,4142.563965,4204.615234,450.000000,1.000000,15.000000,,,,0.000000,4.000000,4.000000,4.000000,4.000000,4.000000,100.000000,,,,,,,,,,,,,,,,,,,
1618379253.747948,14.000000,0.000000,4236.922852,4228.205078,4157.948730,4147.179688,4208.717773,450.000000,1.000000,15.000000,,,,0.000000,4.000000,4.000000,4.000000,4.000000,4.000000,100.000000,,,,,,,,7.000000,0.000000,0.342302,0.551514,0.335205,-0.682861,0.974136,0.088380,-0.178225,-12.999166,7.460873,59.503429
1618379253.755665,15.000000,0.000000,4231.794922,4226.153809,4165.641113,4162.051270,4204.102539,16357.000000,1.000000,15.000000,,,,0.000000,4.000000,4.000000,4.000000,4.000000,4.000000,100.000000,,,,,,,,,,,,,,,,,,,
1618379253.763482,16.000000,0.000000,4227.692383,4214.358887,4165.128418,4161.538574,4205.641113,0.000000,1.000000,15.000000,,,,0.000000,4.000000,4.000000,4.000000,4.000000,4.000000,100.000000,,,,,,,,8.000000,0.000000,0.342550,0.551514,0.335449,-0.682617,0.991714,0.080079,-0.173342,-13.075004,9.944816,58.099052
1618379253.771298,17.000000,0.000000,4228.717773,4209.743652,4157.436035,4144.102539,4208.717773,0.000000,1.000000,15.000000,,,,0.000000,4.000000,4.000000,4.000000,4.000000,4.000000,100.000000,,,,,,,,,,,,,,,,,,,
1618379253.779115,18.000000,0.000000,4230.769043,4221.538574,4156.410156,4147.692383,4211.282227,0.000000,1.000000,15.000000,,,,0.000000,4.000000,4.000000,4.000000,4.000000,4.000000,100.000000,,,,,,,,9.000000,0.000000,0.342302,0.551514,0.335205,-0.682861,0.974136,0.088380,-0.178225,-12.903995,8.292365,58.749207
1618379253.786931,19.000000,0.000000,4234.358887,4223.077148,4164.615234,4167.692383,4213.846191,0.000000,1.000000,15.000000,,,,0.000000,4.000000,4.000000,4.000000,4.000000,4.000000,100.000000,,,,,,,,,,,,,,,,,,,
1618379253.794748,20.000000,0.000000,4240.512695,4216.410156,4167.692383,4157.436035,4213.846191,0.000000,1.000000,15.000000,,,,0.000000,4.000000,4.000000,4.000000,4.000000,4.000000,100.000000,,,,,,,,10.000000,0.000000,0.342302,0.551514,0.335205,-0.682861,1.004898,0.075196,-0.174319,-12.929533,6.685528,59.214714
1618379253.802564,21.000000,0.000000,4246.153809,4225.641113,4167.692383,4145.128418,4216.410156,0.000000,1.000000,15.000000,,,,0.000000,4.000000,4.000000,4.000000,4.000000,4.000000,100.000000,,,,,,,,,,,,,,,,,,,
1618379253.810381,22.000000,0.000000,4246.666504,4229.743652,4171.282227,4160.512695,4219.487305,0.000000,1.000000,15.000000,,,,0.000000,4.000000,4.000000,4.000000,4.000000,4.000000,100.000000,,,,,,,,11.000000,0.000000,0.342302,0.551514,0.335205,-0.682861,0.983902,0.071778,-0.170901,-12.952518,9.247005,59.693489
1618379253.818198,23.000000,0.000000,4241.538574,4218.461426,4167.179688,4158.461426,4218.974121,0.000000,1.000000,15.000000,,,,0.000000,4.000000,4.000000,4.000000,4.000000,4.000000,100.000000,,,,,,,,,,,,,,,,,,,
1618379253.825913,24.000000,0.000000,4242.051270,4219.487305,4158.461426,4145.641113,4218.461426,0.000000,1.000000,15.000000,,,,0.000000,4.000000,4.000000,4.000000,4.000000,4.000000,100.000000,,,,,,,,12.000000,0.000000,0.342302,0.551514,0.335205,-0.682861,0.997574,0.089357,-0.174807,-12.793758,11.552335,58.270107
1618379253.833729,25.000000,0.000000,4253.333496,4233.846191,4166.666504,4156.410156,4223.589844,0.000000,1.000000,15.000000,,,,0.000000,4.000000,4.000000,4.000000,4.000000,4.000000,100.000000,,,,,,,,,,,,,,,,,,,
1618379253.841445,26.000000,0.000000,4266.666504,4234.871582,4180.512695,4165.128418,4233.333496,0.000000,1.000000,15.000000,,,,0.000000,4.000000,4.000000,4.000000,4.000000,4.000000,100.000000,,,,,,,,13.000000,0.000000,0.342302,0.551514,0.335205,-0.682861,0.997086,0.081056,-0.178714,-12.890136,9.619501,59.022785
1618379253.849262,27.000000,0.000000,4276.922852,4229.743652,4183.589844,4163.589844,4247.179688,0.000000,1.000000,15.000000,,,,0.000000,4.000000,4.000000,4.000000,4.000000,4.000000,100.000000,,,,,,,,,,,,,,,,,,,
1618379253.857079,28.000000,0.000000,4277.436035,4231.794922,4180.000000,4167.692383,4255.897461,0.000000,1.000000,15.000000,,,,0.000000,4.000000,4.000000,4.000000,4.000000,4.000000,100.000000,,,,,,,,14.000000,0.000000,0.342063,0.551514,0.335449,-0.682861,0.984878,0.085451,-0.174807,-12.917060,11.887581,59.520752
1618379253.864895,29.000000,0.000000,4266.153809,4232.307617,4171.794922,4167.692383,4240.000000,0.000000,1.000000,15.000000,,,,0.000000,4.000000,4.000000,4.000000,4.000000,4.000000,100.000000,,,,,,,,,,,,,,,,,,,
1618379253.872712,30.000000,0.000000,4259.487305,4229.743652,4166.153809,4157.436035,4225.641113,0.000000,1.000000,15.000000,,,,0.000000,4.000000,4.000000,4.000000,4.000000,4.000000,100.000000,,,,,,,,15.000000,0.000000,0.342302,0.551514,0.335205,-0.682861,0.987320,0.072267,-0.164553,-13.001108,10.100669,59.968922
1618379253.880528,31.000000,0.000000,4257.948730,4222.051270,4168.717773,4157.948730,4233.333496,0.000000,1.000000,15.000000,,,,0.000000,4.000000,4.000000,4.000000,4.000000,4.000000,100.000000,,,,,,,,,,,,,,,,,,,
1618379253.888345,32.000000,0.000000,4239.487305,4212.820313,4163.589844,4159.487305,4228.205078,0.000000,1.000000,15.000000,,,,0.000000,4.000000,4.000000,4.000000,4.000000,4.000000,100.000000,,,,,,,,16.000000,0.000000,0.342063,0.551514,0.335449,-0.682861,0.994644,0.088380,-0.176272,-13.196381,8.492449,60.491905
1618379253.896161,33.000000,0.000000,4218.461426,4215.897461,4148.205078,4154.358887,4202.563965,0.000000,1.000000,15.000000,,,,0.000000,4.000000,4.000000,4.000000,4.000000,4.000000,100.000000,,,,,,,,,,,,,,,,,,,
1618379253.903978,34.000000,0.000000,4227.179688,4227.692383,4154.871582,4148.205078,4203.589844,0.000000,1.000000,15.000000,,,,0.000000,4.000000,4.000000,4.000000,4.000000,4.000000,100.000000,,,,,,,,17.000000,0.000000,0.342063,0.551514,0.335449,-0.682861,0.992691,0.075196,-0.181643,-13.192681,6.865604,60.783142
1618379253.911695,35.000000,0.000000,4255.897461,4233.846191,4185.128418,4152.820313,4228.205078,0.000000,1.000000,15.000000,,,,0.000000,4.000000,4.000000,4.000000,4.000000,4.000000,100.000000,,,,,,,,,,,,,,,,,,,
1618379253.919511,36.000000,0.000000,4266.666504,4235.897461,4200.512695,4172.307617,4234.358887,0.000000,1.000000,15.000000,,,,0.000000,4.000000,4.000000,4.000000,4.000000,4.000000,100.000000,,,,,,,,18.000000,0.000000,0.342063,0.551514,0.335449,-0.682861,0.996597,0.086427,-0.171389,-13.129536,9.409074,59.071350
1618379253.927328,37.000000,0.000000,4252.307617,4235.897461,4191.794922,4176.922852,4224.102539,0.000000,1.000000,15.000000,,,,0.000000,4.000000,4.000000,4.000000,4.000000,4.000000,100.000000,,,,,,,,,,,,,,,,,,,
1618379253.935144,38.000000,0.000000,4248.205078,4230.769043,4180.000000,4172.307617,4224.102539,0.000000,1.000000,15.000000,,,,0.000000,4.000000,4.000000,4.000000,4.000000,4.000000,100.000000,,,,,,,,19.000000,0.000000,0.341908,0.551758,0.335205,-0.682861,0.990738,0.086427,-0.165042,-13.132520,7.750381,59.564457
1618379253.942961,39.000000,0.000000,4260.512695,4225.641113,4175.897461,4168.717773,4232.307617,0.000000,1.000000,15.000000,,,,0.000000,4.000000,4.000000,4.000000,4.000000,4.000000,100.000000,,,,,,,,,,,,,,,,,,,
1618379253.950777,40.000000,0.000000,4259.487305,4226.153809,4177.948730,4158.974121,4237.436035,0.000000,1.000000,15.000000,,,,0.000000,4.000000,4.000000,4.000000,4.000000,4.000000,100.000000,,,,,,,,20.000000,0.000000,0.341908,0.551758,0.335205,-0.682861,0.996109,0.083986,-0.172366,-13.075391,6.317374,59.948441
1618379253.958594,41.000000,0.000000,4248.717773,4229.230957,4180.000000,4158.974121,4231.794922,0.000000,1.000000,15.000000,,,,0.000000,4.000000,4.000000,4.000000,4.000000,4.000000,100.000000,,,,,,,,,,,,,,,,,,,
1618379253.966410,42.000000,0.000000,4249.743652,4233.846191,4182.051270,4166.666504,4223.077148,0.000000,1.000000,15.000000,,,,0.000000,4.000000,4.000000,4.000000,4.000000,4.000000,100.000000,,,,,,,,21.000000,0.000000,0.341753,0.552002,0.334961,-0.682861,0.991226,0.069337,-0.161624,-12.904344,8.975482,58.320118
1618379253.974227,43.000000,0.000000,4262.051270,4245.128418,4184.615234,4168.717773,4228.205078,0.000000,1.000000,15.000000,,,,0.000000,4.000000,4.000000,4.000000,4.000000,4.000000,100.000000,,,,,,,,,,,,,,,,,,,
1618379253.982044,44.000000,0.000000,4265.641113,4250.769043,4186.666504,4168.205078,4233.846191,0.000000,1.000000,15.000000,,,,0.000000,4.000000,4.000000,4.000000,4.000000,4.000000,100.000000,,,,,,,,22.000000,0.000000,0.341660,0.551758,0.334961,-0.683105,0.976089,0.078614,-0.165530,-12.929848,7.360149,57.034077
1618379253.989760,45.000000,0.000000,4259.487305,4241.025879,4186.666504,4176.922852,4225.128418,0.000000,1.000000,15.000000,,,,0.000000,4.000000,4.000000,4.000000,4.000000,4.000000,100.000000,,,,,,,,,,,,,,,,,,,
1618379253.997576,46.000000,0.000000,4255.897461,4232.820313,4179.487305,4181.025879,4221.025879,0.000000,1.000000,15.000000,,,,0.000000,4.000000,4.000000,4.000000,4.000000,4.000000,100.000000,,,,,,,,23.000000,0.000000,0.341660,0.551758,0.334961,-0.683105,0.987808,0.083986,-0.178714,-12.952801,6.025981,57.850544
1618379254.005393,47.000000,0.000000,4255.897461,4236.410156,4174.358887,4167.179688,4225.128418,0.000000,1.000000,15.000000,,,,0.000000,4.000000,4.000000,4.000000,4.000000,4.000000,100.000000,,,,,,,,,,,,,,,,,,,
1618379254.013209,48.000000,0.000000,4254.358887,4247.179688,4181.538574,4169.230957,4224.615234,0.000000,1.000000,15.000000,,,,0.000000,4.000000,4.000000,4.000000,4.000000,4.000000,100.000000,,,,,,,,24.000000,0.000000,0.341265,0.552002,0.334961,-0.683105,1.005386,0.092287,-0.172366,-13.093089,4.944860,58.346100
1618379254.021025,49.000000,0.000000,4247.179688,4254.358887,4189.743652,4178.974121,4213.333496,0.000000,1.000000,15.000000,,,,0.000000,4.000000,4.000000,4.000000,4.000000,4.000000,100.000000,,,,,,,,,,,,,,,,,,,
1618379254.028842,50.000000,0.000000,4241.025879,4244.102539,4181.538574,4167.179688,4204.102539,0.000000,1.000000,15.000000,,,,0.000000,4.000000,4.000000,4.000000,4.000000,4.000000,100.000000,,,,,,,,25.000000,0.000000,0.341265,0.552002,0.334961,-0.683105,0.992203,0.084474,-0.174807,-13.099718,3.732589,57.057461
1618379254.036658,51.000000,0.000000,4241.538574,4226.666504,4166.666504,4155.897461,4205.128418,0.000000,1.000000,15.000000,,,,0.000000,4.000000,4.000000,4.000000,4.000000,4.000000,100.000000,,,,,,,,,,,,,,,,,,,
1618379254.044474,52.000000,0.000000,4243.589844,4224.102539,4167.692383,4164.102539,4205.128418,0.000000,1.000000,15.000000,,,,0.000000,4.000000,4.000000,4.000000,4.000000,4.000000,100.000000,,,,,,,,26.000000,0.000000,0.341265,0.552002,0.334961,-0.683105,0.995621,0.103029,-0.181643,-13.225315,2.880808,57.751957
1618379254.052190,53.000000,0.000000,4242.051270,4229.230957,4170.769043,4168.205078,4205.128418,0.000000,1.000000,15.000000,,,,0.000000,4.000000,4.000000,4.000000,4.000000,4.000000,100.000000,,,,,,,,,,,,,,,,,,,
1618379254.060005,54.000000,0.000000,4235.384766,4231.282227,4164.615234,4162.563965,4211.282227,0.000000,1.000000,15.000000,,,,0.000000,4.000000,4.000000,4.000000,4.000000,4.000000,100.000000,,,,,,,,27.000000,0.000000,0.340870,0.552246,0.334961,-0.683105,0.982925,0.085939,-0.176761,-13.158907,5.703126,58.377007
1618379254.067821,55.000000,0.000000,4237.436035,4231.794922,4162.563965,4166.153809,4221.025879,0.000000,1.000000,15.000000,,,,0.000000,4.000000,4.000000,4.000000,4.000000,4.000000,100.000000,,,,,,,,,,,,,,,,,,,
1618379254.075537,56.000000,0.000000,4244.102539,4235.384766,4168.717773,4171.282227,4223.077148,0.000000,1.000000,15.000000,,,,0.000000,4.000000,4.000000,4.000000,4.000000,4.000000,100.000000,,,,,,,,28.000000,0.000000,0.341110,0.552246,0.334717,-0.683105,0.995132,0.071778,-0.169924,-13.099138,4.355214,58.999363
1618379254.083353,57.000000,0.000000,4241.538574,4232.820313,4167.179688,4170.769043,4217.948730,0.000000,1.000000,15.000000,,,,0.000000,4.000000,4.000000,4.000000,4.000000,4.000000,100.000000,,,,,,,,,,,,,,,,,,,
1618379254.091169,58.000000,0.000000,4235.384766,4220.512695,4163.077148,4161.025879,4216.410156,0.000000,1.000000,15.000000,,,,0.000000,4.000000,4.000000,4.000000,4.000000,4.000000,100.000000,,,,,,,,29.000000,0.000000,0.341110,0.552246,0.334717,-0.683105,0.985367,0.083986,-0.176761,-13.045347,7.209538,57.525764
1618379254.098985,59.000000,0.000000,4238.461426,4223.077148,4170.769043,4154.871582,4219.487305,0.000000,1.000000,15.000000,,,,0.000000,4.000000,4.000000,4.000000,4.000000,4.000000,100.000000,,,,,,,,,,,,,,,,,,,
1618379254.106802,60.000000,0.000000,4238.974121,4238.461426,4176.410156,4164.102539,4213.333496,0.000000,1.000000,15.000000,,,,0.000000,4.000000,4.000000,4.000000,4.000000,4.000000,100.000000,,,,,,,,30.000000,0.000000,0.340954,0.552490,0.334473,-0.683105,0.987808,0.080568,-0.176761,-13.176381,9.838244,56.199528
1618379254.114518,61.000000,0.000000,4227.692383,4230.256348,4170.769043,4162.051270,4200.512695,0.000000,1.000000,15.000000,,,,0.000000,4.000000,4.000000,4.000000,4.000000,4.000000,100.000000,,,,,,,,,,,,,,,,,,,
1618379254.122335,62.000000,0.000000,4218.974121,4215.384766,4162.563965,4149.230957,4195.384766,0.000000,1.000000,15.000000,,,,0.000000,4.000000,4.000000,4.000000,4.000000,4.000000,100.000000,,,,,,,,31.000000,0.000000,0.340954,0.552490,0.334473,-0.683105,0.982925,0.092775,-0.166995,-13.055051,8.316081,56.979816
1618379254.130151,63.000000,0.000000,4218.461426,4227.179688,4159.487305,4152.820313,4201.538574,0.000000,1.000000,15.000000,,,,0.000000,4.000000,4.000000,4.000000,4.000000,4.000000,100.000000,1.000000,91.666664,3.000000,4.000000,4.000000,4.000000,4.000000,,,,,,,,,,,,
1618379254.137968,64.000000,0.000000,4221.025879,4230.256348,4158.974121,4155.897461,4209.743652,450.000000,1.000000,15.000000,,,,0.000000,4.000000,4.000000,4.000000,4.000000,4.000000,100.000000,,,,,,,,32.000000,0.000000,0.340954,0.552490,0.334473,-0.683105,0.979507,0.082521,-0.161135,-13.005669,10.893950,55.708172
1618379254.145784,65.000000,0.000000,4225.641113,4211.794922,4160.000000,4157.948730,4213.846191,450.000000,1.000000,15.000000,,,,0.000000,4.000000,4.000000,4.000000,4.000000,4.000000,100.000000,,,,,,,,,,,,,,,,,,,
1618379254.153601,66.000000,0.000000,4229.230957,4211.794922,4162.563965,4165.641113,4214.871582,16214.000000,1.000000,15.000000,,,,0.000000,4.000000,4.000000,4.000000,4.000000,4.000000,100.000000,,,,,,,,33.000000,0.000000,0.340558,0.552734,0.334473,-0.683105,0.977066,0.085939,-0.172854,-13.021039,9.206401,56.477783
1618379254.161418,67.000000,0.000000,4224.615234,4221.538574,4160.512695,4150.256348,4212.307617,450.000000,1.000000,15.000000,,,,0.000000,4.000000,4.000000,4.000000,4.000000,4.000000,100.000000,,,,,,,,,,,,,,,,,,,
1618379254.169234,68.000000,0.000000,4218.974121,4219.487305,4157.948730,4136.922852,4208.205078,16208.000000,1.000000,15.000000,,,,0.000000,4.000000,4.000000,4.000000,4.000000,4.000000,100.000000,,,,,,,,34.000000,0.000000,0.340797,0.552734,0.334229,-0.683105,0.988296,0.089357,-0.173831,-13.154504,11.635421,57.170433
1618379254.177051,69.000000,0.000000,4221.538574,4224.102539,4156.410156,4156.410156,4209.743652,450.000000,1.000000,15.000000,,,,0.000000,4.000000,4.000000,4.000000,4.000000,4.000000,100.000000,,,,,,,,,,,,,,,,,,,
1618379254.184867,70.000000,0.000000,4227.179688,4228.717773,4155.897461,4166.666504,4213.846191,16201.000000,1.000000,15.000000,,,,0.000000,4.000000,4.000000,4.000000,4.000000,4.000000,100.000000,,,,,,,,35.000000,0.000000,0.341286,0.552734,0.334229,-0.682861,1.001480,0.089845,-0.172854,-13.095177,9.993356,57.793819
1618379254.192584,71.000000,0.000000,4232.820313,4224.615234,4161.538574,4161.025879,4222.051270,450.000000,1.000000,15.000000,,,,0.000000,4.000000,4.000000,4.000000,4.000000,4.000000,100.000000,,,,,,,,,,,,,,,,,,,
1618379254.200400,72.000000,0.000000,4240.512695,4221.538574,4169.743652,4171.282227,4234.871582,450.000000,1.000000,15.000000,,,,0.000000,4.000000,4.000000,4.000000,4.000000,4.000000,100.000000,,,,,,,,36.000000,0.000000,0.341130,0.552979,0.333984,-0.682861,0.990738,0.088869,-0.175296,-13.161412,12.044604,58.295052
1618379254.208217,73.000000,0.000000,4244.102539,4220.512695,4169.743652,4179.487305,4237.436035,16226.000000,1.000000,15.000000,,,,0.000000,4.000000,4.000000,4.000000,4.000000,4.000000,100.000000,,,,,,,,,,,,,,,,,,,
1618379254.216034,74.000000,0.000000,4248.717773,4226.153809,4169.743652,4173.846191,4235.384766,450.000000,1.000000,15.000000,,,,0.000000,4.000000,4.000000,4.000000,4.000000,4.000000,100.000000,,,,,,,,37.000000,0.000000,0.341130,0.552979,0.333984,-0.682861,0.993179,0.088380,-0.172854,-13.161209,14.249619,56.832069
1618379254.223850,75.000000,0.000000,4253.846191,4230.769043,4174.358887,4182.563965,4235.384766,16206.000000,1.000000,15.000000,,,,0.000000,4.000000,4.000000,4.000000,4.000000,4.000000,100.000000,,,,,,,,,,,,,,,,,,,
1618379254.231667,76.000000,0.000000,4253.333496,4226.666504,4176.410156,4183.589844,4238.974121,450.000000,1.000000,15.000000,,,,0.000000,4.000000,4.000000,4.000000,4.000000,4.000000,100.000000,,,,,,,,38.000000,0.000000,0.341286,0.552734,0.334229,-0.682861,1.001480,0.089845,-0.172854,-13.161026,16.054688,55.635014
1618379254.239483,77.000000,0.000000,4258.461426,4225.641113,4178.974121,4169.743652,4251.282227,450.000000,1.000000,15.000000,,,,0.000000,4.000000,4.000000,4.000000,4.000000,4.000000,100.000000,,,,,,,,,,,,,,,,,,,
1618379254.247300,78.000000,0.000000,4263.077148,4237.436035,4182.051270,4178.974121,4258.974121,450.000000,1.000000,15.000000,,,,0.000000,4.000000,4.000000,4.000000,4.000000,4.000000,100.000000,,,,,,,,39.000000,0.000000,0.341130,0.552979,0.333984,-0.682861,0.993179,0.088380,-0.172854,-13.160862,17.858694,54.438034
1618379254.255116,79.000000,0.000000,4254.871582,4243.077148,4175.384766,4195.384766,4251.794922,16206.000000,1.000000,15.000000,,,,0.000000,4.000000,4.000000,4.000000,4.000000,4.000000,100.000000,,,,,,,,,,,,,,,,,,,
1618379254.262833,80.000000,0.000000,4244.615234,4232.820313,4164.102539,4186.666504,4242.563965,450.000000,1.000000,15.000000,,,,0.000000,4.000000,4.000000,4.000000,4.000000,4.000000,100.000000,,,,,,,,40.000000,0.000000,0.340641,0.552979,0.333984,-0.683105,0.992691,0.077638,-0.165042,-13.100898,15.414856,55.454288
1618379254.270649,81.000000,0.000000,4246.153809,4230.256348,4164.102539,4168.717773,4241.538574,450.000000,1.000000,15.000000,,,,0.000000,4.000000,4.000000,4.000000,4.000000,4.000000,100.000000,,,,,,,,,,,,,,,,,,,
1618379254.278466,82.000000,0.000000,4250.769043,4229.743652,4166.666504,4161.025879,4236.410156,450.000000,1.000000,15.000000,,,,0.000000,4.000000,4.000000,4.000000,4.000000,4.000000,100.000000,,,,,,,,41.000000,0.000000,0.340880,0.552979,0.333740,-0.683105,1.002457,0.088380,-0.175296,-13.106747,13.394848,56.309105
1618379254.286283,83.000000,0.000000,4254.871582,4227.692383,4171.282227,4170.769043,4235.384766,16206.000000,1.000000,15.000000,,,,0.000000,4.000000,4.000000,4.000000,4.000000,4.000000,100.000000,,,,,,,,,,,,,,,,,,,
1618379254.294099,84.000000,0.000000,4269.230957,4232.307617,4181.538574,4180.000000,4250.256348,450.000000,1.000000,15.000000,,,,0.000000,4.000000,4.000000,4.000000,4.000000,4.000000,100.000000,,,,,,,,42.000000,0.000000,0.340973,0.553223,0.333740,-0.682861,0.991226,0.075196,-0.163577,-13.112010,11.397393,57.018623
1618379254.301916,85.000000,0.000000,4289.743652,4229.743652,4183.589844,4174.358887,4271.794922,450.000000,1.000000,15.000000,,,,0.000000,4.000000,4.000000,4.000000,4.000000,4.000000,100.000000,,,,,,,,,,,,,,,,,,,
1618379254.309732,86.000000,0.000000,4308.717773,4223.077148,4175.897461,4175.384766,4287.179688,450.000000,1.000000,15.000000,,,,0.000000,4.000000,4.000000,4.000000,4.000000,4.000000,100.000000,,,,,,,,43.000000,0.000000,0.340973,0.553223,0.333740,-0.682861,0.990738,0.086915,-0.175784,-13.116747,13.487684,55.743099
1618379254.317549,87.000000,0.000000,4334.358887,4227.692383,4172.307617,4186.666504,4297.436035,16206.000000,1.000000,15.000000,,,,0.000000,4.000000,4.000000,4.000000,4.000000,4.000000,100.000000,,,,,,,,,,,,,,,,,,,
1618379254.325365,88.000000,0.000000,4376.410156,4235.384766,4174.871582,4185.128418,4320.512695,450.000000,1.000000,15.000000,,,,0.000000,4.000000,4.000000,4.000000,4.000000,4.000000,100.000000,,,,,,,,44.000000,0.000000,0.340723,0.553223,0.333496,-0.683105,0.984878,0.084474,-0.175296,-13.061194,11.540762,56.628849
1618379254.333282,89.000000,0.000000,4420.512695,4238.974121,4181.025879,4183.077148,4351.794922,450.000000,1.000000,15.000000,,,,0.000000,4.000000,4.000000,4.000000,4.000000,4.000000,100.000000,,,,,,,,,,,,,,,,,,,
1618379254.341098,90.000000,0.000000,4448.717773,4240.512695,4189.743652,4189.230957,4372.307617,450.000000,1.000000,15.000000,,,,0.000000,4.000000,4.000000,4.000000,4.000000,4.000000,100.000000,,,,,,,,45.000000,0.000000,0.340723,0.553223,0.333496,-0.683105,1.000992,0.077150,-0.170413,-13.071013,9.788532,57.366207
1618379254.348915,91.000000,0.000000,4471.794922,4237.436035,4190.769043,4185.641113,4385.128418,16206.000000,1.000000,15.000000,,,,0.000000,4.000000,4.000000,4.000000,4.000000,4.000000,100.000000,,,,,,,,,,,,,,,,,,,
1618379254.356731,92.000000,0.000000,4496.922852,4241.538574,4184.102539,4184.102539,4400.512695,450.000000,1.000000,15.000000,,,,0.000000,4.000000,4.000000,4.000000,4.000000,4.000000,100.000000,,,,,,,,46.000000,0.000000,0.340962,0.553223,0.333252,-0.683105,0.996109,0.075196,-0.167971,-13.020035,8.151710,57.970016
1618379254.364548,93.000000,0.000000,4513.333496,4256.922852,4184.615234,4190.256348,4409.743652,450.000000,1.000000,15.000000,,,,0.000000,4.000000,4.000000,4.000000,4.000000,4.000000,100.000000,,,,,,,,,,,,,,,,,,,
1618379254.372365,94.000000,0.000000,4522.051270,4264.102539,4187.179688,4186.153809,4411.794922,450.000000,1.000000,15.000000,,,,0.000000,4.000000,4.000000,4.000000,4.000000,4.000000,100.000000,,,,,,,,47.000000,0.000000,0.340962,0.553223,0.333252,-0.683105,0.996109,0.082521,-0.170413,-12.974154,10.566568,58.513443
1618379254.380181,95.000000,0.000000,4529.230957,4260.000000,4183.077148,4173.846191,4417.436035,16206.000000,1.000000,15.000000,,,,0.000000,4.000000,4.000000,4.000000,4.000000,4.000000,100.000000,,,,,,,,,,,,,,,,,,,
1618379254.387998,96.000000,0.000000,4532.307617,4251.794922,4183.589844,4175.384766,4424.102539,450.000000,1.000000,15.000000,,,,0.000000,4.000000,4.000000,4.000000,4.000000,4.000000,100.000000,,,,,,,,48.000000,0.000000,0.340962,0.553223,0.333252,-0.683105,0.987808,0.085451,-0.171878,-12.992677,8.851943,59.122158
1618379254.395814,97.000000,0.000000,4538.461426,4247.179688,4189.230957,4198.461426,4431.282227,450.000000,1.000000,15.000000,,,,0.000000,4.000000,4.000000,4.000000,4.000000,4.000000,100.000000,,,,,,,,,,,,,,,,,,,
1618379254.403531,98.000000,0.000000,4547.692383,4258.461426,4195.384766,4208.717773,4438.974121,450.000000,1.000000,15.000000,,,,0.000000,4.000000,4.000000,4.000000,4.000000,4.000000,100.000000,,,,,,,,49.000000,0.000000,0.340472,0.553223,0.333252,-0.683350,0.988785,0.094240,-0.180667,-12.889716,7.368595,59.670002
1618379254.411347,99.000000,0.000000,4547.692383,4276.410156,4208.205078,4203.589844,4442.563965,16206.000000,1.000000,15.000000,,,,0.000000,4.000000,4.000000,4.000000,4.000000,4.000000,100.000000,,,,,,,,,,,,,,,,,,,
1618379254.419163,100.000000,0.000000,4542.051270,4267.692383,4212.820313,4206.666504,4444.615234,450.000000,1.000000,15.000000,,,,0.000000,4.000000,4.000000,4.000000,4.000000,4.000000,100.000000,,,,,,,,50.000000,0.000000,0.341200,0.553223,0.333008,-0.683105,0.996109,0.072755,-0.166018,-12.916682,9.861765,58.129337
1618379254.426980,101.000000,0.000000,4531.282227,4247.179688,4201.538574,4198.461426,4441.025879,450.000000,1.000000,15.000000,,,,0.000000,4.000000,4.000000,4.000000,4.000000,4.000000,100.000000,,,,,,,,,,,,,,,,,,,
1618379254.434796,102.000000,0.000000,4514.358887,4260.512695,4195.897461,4189.230957,4427.179688,450.000000,1.000000,15.000000,,,,0.000000,4.000000,4.000000,4.000000,4.000000,4.000000,100.000000,,,,,,,,51.000000,0.000000,0.340804,0.553467,0.333008,-0.683105,0.983902,0.071778,-0.162112,-12.881137,8.337251,58.776463
1618379254.442612,103.000000,0.000000,4496.410156,4281.538574,4201.025879,4197.948730,4413.846191,16206.000000,1.000000,15.000000,,,,0.000000,4.000000,4.000000,4.000000,4.000000,4.000000,100.000000,,,,,,,,,,,,,,,,,,,
1618379254.450429,104.000000,0.000000,4484.615234,4266.666504,4202.051270,4200.000000,4408.205078,450.000000,1.000000,15.000000,,,,0.000000,4.000000,4.000000,4.000000,4.000000,4.000000,100.000000,,,,,,,,52.000000,0.000000,0.340804,0.553467,0.333008,-0.683105,0.993667,0.086427,-0.168948,-12.789330,6.905372,59.358879
1618379254.458245,105.000000,0.000000,4471.794922,4256.410156,4198.974121,4198.974121,4403.589844,450.000000,1.000000,15.000000,,,,0.000000,4.000000,4.000000,4.000000,4.000000,4.000000,100.000000,,,,,,,,,,,,,,,,,,,
1618379254.466161,106.000000,0.000000,4453.333496,4266.666504,4194.871582,4205.128418,4394.358887,450.000000,1.000000,15.000000,,,,0.000000,4.000000,4.000000,4.000000,4.000000,4.000000,100.000000,,,,,,,,53.000000,0.000000,0.340314,0.553467,0.333008,-0.683350,0.988296,0.080079,-0.177249,-12.826336,5.616681,59.703602
1618379254.473978,107.000000,0.000000,4442.563965,4263.589844,4186.153809,4203.589844,4385.641113,16206.000000,1.000000,15.000000,,,,0.000000,4.000000,4.000000,4.000000,4.000000,4.000000,100.000000,,,,,,,,,,,,,,,,,,,
1618379254.481794,108.000000,0.000000,4427.179688,4256.922852,4182.563965,4192.820313,4371.282227,450.000000,1.000000,15.000000,,,,0.000000,4.000000,4.000000,4.000000,4.000000,4.000000,100.000000,,,,,,,,54.000000,0.000000,0.340314,0.553467,0.333008,-0.683350,0.999039,0.088869,-0.168948,-12.919456,4.576490,60.193302
1618379254.489611,109.000000,0.000000,4387.692383,4256.922852,4181.538574,4180.000000,4345.641113,450.000000,1.000000,15.000000,,,,0.000000,4.000000,4.000000,4.000000,4.000000,4.000000,100.000000,,,,,,,,,,,,,,,,,,,
1618379254.497428,110.000000,0.000000,4348.717773,4251.282227,4168.717773,4167.179688,4315.897461,450.000000,1.000000,15.000000,,,,0.000000,4.000000,4.000000,4.000000,4.000000,4.000000,100.000000,,,,,,,,55.000000,0.000000,0.340314,0.553467,0.333008,-0.683350,0.998062,0.069337,-0.164065,-13.063079,3.580503,60.634033
1618379254.505244,111.000000,0.000000,4335.384766,4242.563965,4160.000000,4152.820313,4296.410156,16206.000000,1.000000,15.000000,,,,0.000000,4.000000,4.000000,4.000000,4.000000,4.000000,100.000000,,,,,,,,,,,,,,,,,,,
1618379254.513061,112.000000,0.000000,4327.179688,4245.128418,4167.692383,4146.153809,4289.230957,450.000000,1.000000,15.000000,,,,0.000000,4.000000,4.000000,4.000000,4.000000,4.000000,100.000000,,,,,,,,56.000000,0.000000,0.340314,0.553467,0.333008,-0.683350,0.990250,0.079103,-0.170901,-13.132524,6.332851,59.116596
1618379254.520877,113.000000,0.000000,4309.743652,4257.436035,4173.333496,4154.871582,4286.666504,450.000000,1.000000,15.000000,,,,0.000000,4.000000,4.000000,4.000000,4.000000,4.000000,100.000000,,,,,,,,,,,,,,,,,,,
1618379254.528694,114.000000,0.000000,4306.666504,4264.102539,4171.794922,4173.333496,4289.743652,450.000000,1.000000,15.000000,,,,0.000000,4.000000,4.000000,4.000000,4.000000,4.000000,100.000000,,,,,,,,57.000000,0.000000,0.340156,0.553711,0.332764,-0.683350,1.004898,0.086915,-0.173831,-13.195025,9.049227,57.691090
1618379254.536610,115.000000,0.000000,4313.333496,4258.461426,4178.974121,4182.051270,4298.461426,16206.000000,1.000000,15.000000,,,,0.000000,4.000000,4.000000,4.000000,4.000000,4.000000,100.000000,,,,,,,,,,,,,,,,,,,
1618379254.544427,116.000000,0.000000,4303.077148,4259.487305,4189.230957,4182.563965,4300.512695,450.000000,1.000000,15.000000,,,,0.000000,4.000000,4.000000,4.000000,4.000000,4.000000,100.000000,,,,,,,,58.000000,0.000000,0.340156,0.553711,0.332764,-0.683350,0.989761,0.087404,-0.170901,-13.251276,7.366704,58.202595
1618379254.552243,117.000000,0.000000,4280.000000,4262.051270,4182.051270,4181.025879,4281.538574,450.000000,1.000000,15.000000,,,,0.000000,4.000000,4.000000,4.000000,4.000000,4.000000,100.000000,,,,,,,,,,,,,,,,,,,
1618379254.560060,118.000000,0.000000,4257.948730,4249.230957,4171.282227,4170.769043,4251.282227,450.000000,1.000000,15.000000,,,,0.000000,4.000000,4.000000,4.000000,4.000000,4.000000,100.000000,,,,,,,,59.000000,0.000000,0.340156,0.553711,0.332764,-0.683350,0.986343,0.078614,-0.168948,-13.122456,5.912250,58.842392
1618379254.567876,119.000000,0.000000,4243.589844,4249.743652,4176.410156,4173.333496,4238.974121,16206.000000,1.000000,15.000000,,,,0.000000,4.000000,4.000000,4.000000,4.000000,4.000000,100.000000,,,,,,,,,,,,,,,,,,,
1618379254.575693,120.000000,0.000000,4236.410156,4267.692383,4181.538574,4185.641113,4242.563965,450.000000,1.000000,15.000000,,,,0.000000,4.000000,4.000000,4.000000,4.000000,4.000000,100.000000,,,,,,,,60.000000,0.000000,0.340156,0.553711,0.332764,-0.683350,1.003433,0.095216,-0.168948,-13.305594,8.551054,59.358398
1618379254.583509,121.000000,0.000000,4232.820313,4263.077148,4173.333496,4163.589844,4235.897461,450.000000,1.000000,15.000000,,,,0.000000,4.000000,4.000000,4.000000,4.000000,4.000000,100.000000,,,,,,,,,,,,,,,,,,,
1618379254.591326,122.000000,0.000000,4235.384766,4250.256348,4171.794922,4144.615234,4235.384766,450.000000,1.000000,15.000000,,,,0.000000,4.000000,4.000000,4.000000,4.000000,4.000000,100.000000,,,,,,,,61.000000,0.000000,0.340394,0.553711,0.332520,-0.683350,0.990250,0.081056,-0.167971,-13.290973,7.097795,59.762989
1618379254.599143,123.000000,0.000000,4237.948730,4251.794922,4180.512695,4169.743652,4242.051270,16206.000000,1.000000,15.000000,,,,0.000000,4.000000,4.000000,4.000000,4.000000,4.000000,100.000000,,,,,,,,,,,,,,,,,,,
1618379254.606959,124.000000,0.000000,4213.846191,4238.974121,4173.846191,4178.461426,4218.461426,450.000000,1.000000,15.000000,,,,0.000000,4.000000,4.000000,4.000000,4.000000,4.000000,100.000000,,,,,,,,62.000000,0.000000,0.340142,0.553711,0.332275,-0.683594,0.996109,0.071778,-0.173342,-13.397445,5.789862,60.366379
1618379254.614676,125.000000,0.000000,4180.512695,4227.692383,4165.128418,4151.794922,4187.179688,450.000000,1.000000,15.000000,,,,0.000000,4.000000,4.000000,4.000000,4.000000,4.000000,100.000000,,,,,,,,,,,,,,,,,,,
1618379254.622492,126.000000,0.000000,4177.436035,4237.948730,4178.974121,4157.436035,4191.282227,450.000000,1.000000,15.000000,,,,0.000000,4.000000,4.000000,4.000000,4.000000,4.000000,100.000000,,,,,,,,63.000000,0.000000,0.339983,0.553955,0.332031,-0.683594,0.997086,0.089357,-0.169924,-13.313823,8.440906,58.815895
1618379254.630309,127.000000,0.000000,4195.897461,4240.512695,4190.256348,4184.102539,4210.769043,233.000000,1.000000,15.000000,,,,0.000000,4.000000,4.000000,4.000000,4.000000,4.000000,100.000000,1.000000,91.666664,3.000000,4.000000,4.000000,4.000000,4.000000,,,,,,,,,,,,
1618379254.638125,0.000000,0.000000,4204.102539,4238.461426,4182.563965,4180.512695,4211.794922,450.000000,1.000000,15.000000,,,,0.000000,4.000000,4.000000,4.000000,4.000000,4.000000,100.000000,,,,,,,,0.000000,0.000000,0.339983,0.553955,0.332031,-0.683594,1.006363,0.078126,-0.171389,-13.298379,7.118292,59.334549
1618379254.645942,1.000000,0.000000,4202.051270,4247.692383,4184.615234,4170.769043,4202.051270,450.000000,1.000000,15.000000,,,,0.000000,4.000000,4.000000,4.000000,4.000000,4.000000,100.000000,,,,,,,,,,,,,,,,,,,
1618379254.653759,2.000000,0.000000,4203.589844,4248.717773,4195.897461,4170.256348,4202.563965,16264.000000,1.000000,15.000000,,,,0.000000,4.000000,4.000000,4.000000,4.000000,4.000000,100.000000,,,,,,,,1.000000,0.000000,0.339983,0.553955,0.332031,-0.683594,0.984390,0.072755,-0.169436,-13.284479,5.808309,59.801338
1618379254.661575,3.000000,0.000000,4197.436035,4242.051270,4190.769043,4168.717773,4206.153809,450.000000,1.000000,15.000000,,,,0.000000,4.000000,4.000000,4.000000,4.000000,4.000000,100.000000,,,,,,,,,,,,,,,,,,,
1618379254.669392,4.000000,0.000000,4183.589844,4245.128418,4175.384766,4174.358887,4196.410156,16268.000000,1.000000,15.000000,,,,0.000000,4.000000,4.000000,4.000000,4.000000,4.000000,100.000000,,,,,,,,2.000000,0.000000,0.340128,0.553711,0.331787,-0.683838,0.990250,0.080079,-0.170901,-13.271969,8.457508,60.161633
1618379254.677308,5.000000,0.000000,4183.077148,4246.666504,4169.743652,4177.948730,4186.153809,450.000000,1.000000,15.000000,,,,0.000000,4.000000,4.000000,4.000000,4.000000,4.000000,100.000000,,,,,,,,,,,,,,,,,,,
1618379254.685125,6.000000,0.000000,4184.102539,4237.436035,4166.153809,4167.179688,4187.179688,16231.000000,1.000000,15.000000,,,,0.000000,4.000000,4.000000,4.000000,4.000000,4.000000,100.000000,,,,,,,,3.000000,0.000000,0.339890,0.553711,0.332031,-0.683838,0.986343,0.081056,-0.167971,-13.200894,7.013604,58.631622
1618379254.692941,7.000000,0.000000,4174.358887,4236.410156,4160.512695,4155.384766,4187.692383,450.000000,1.000000,15.000000,,,,0.000000,4.000000,4.000000,4.000000,4.000000,4.000000,100.000000,,,,,,,,,,,,,,,,,,,
1618379254.700758,8.000000,0.000000,4165.641113,4237.436035,4158.461426,4149.743652,4177.948730,450.000000,1.000000,15.000000,,,,0.000000,4.000000,4.000000,4.000000,4.000000,4.000000,100.000000,,,,,,,,4.000000,0.000000,0.339796,0.553467,0.332031,-0.684082,0.991714,0.083986,-0.170901,-13.316374,5.714089,59.228519
1618379254.708574,9.000000,0.000000,4169.743652,4222.051270,4160.512695,4147.692383,4164.615234,16290.000000,1.000000,15.000000,,,,0.000000,4.000000,4.000000,4.000000,4.000000,4.000000,100.000000,,,,,,,,,,,,,,,,,,,
1618379254.716391,10.000000,0.000000,4175.897461,4222.051270,4164.102539,4149.743652,4161.538574,450.000000,1.000000,15.000000,,,,0.000000,4.000000,4.000000,4.000000,4.000000,4.000000,100.000000,,,,,,,,5.000000,0.000000,0.340128,0.553711,0.331787,-0.683838,0.990250,0.080079,-0.170901,-13.300674,8.432526,59.765728
1618379254.724207,11.000000,0.000000,4177.948730,4248.205078,4169.743652,4145.128418,4176.410156,16153.000000,1.000000,15.000000,,,,0.000000,4.000000,4.000000,4.000000,4.000000,4.000000,100.000000,,,,,,,,,,,,,,,,,,,
1618379254.732024,12.000000,0.000000,4181.538574,4251.282227,4171.282227,4147.179688,4186.153809,450.000000,1.000000,15.000000,,,,0.000000,4.000000,4.000000,4.000000,4.000000,4.000000,100.000000,,,,,,,,6.000000,0.000000,0.339796,0.553467,0.332031,-0.684082,0.991714,0.083986,-0.170901,-13.406176,6.991119,60.249214
1618379254.739841,13.000000,0.000000,4188.205078,4235.897461,4169.743652,4165.128418,4178.974121,450.000000,1.000000,15.000000,,,,0.000000,4.000000,4.000000,4.000000,4.000000,4.000000,100.000000,,,,,,,,,,,,,,,,,,,
1618379254.747657,14.000000,0.000000,4191.794922,4240.000000,4174.358887,4174.358887,4180.000000,450.000000,1.000000,15.000000,,,,0.000000,4.000000,4.000000,4.000000,4.000000,4.000000,100.000000,,,,,,,,7.000000,0.000000,0.339796,0.553467,0.332031,-0.684082,1.001968,0.090333,-0.177737,-13.381496,5.753669,60.684353
1618379254.755374,15.000000,0.000000,4192.820313,4246.153809,4177.948730,4169.743652,4194.358887,16153.000000,1.000000,15.000000,,,,0.000000,4.000000,4.000000,4.000000,4.000000,4.000000,100.000000,,,,,,,,,,,,,,,,,,,
1618379254.763190,16.000000,0.000000,4196.922852,4240.512695,4173.333496,4162.051270,4195.384766,0.000000,1.000000,15.000000,,,,0.000000,4.000000,4.000000,4.000000,4.000000,4.000000,100.000000,,,,,,,,8.000000,0.000000,0.339796,0.553467,0.332031,-0.684082,1.001968,0.095216,-0.164553,-13.359284,8.468147,59.341331
1618379254.771007,17.000000,0.000000,4200.000000,4246.666504,4175.384766,4153.333496,4186.666504,0.000000,1.000000,15.000000,,,,0.000000,4.000000,4.000000,4.000000,4.000000,4.000000,100.000000,,,,,,,,,,,,,,,,,,,
1618379254.778823,18.000000,0.000000,4198.974121,4246.153809,4182.051270,4155.897461,4192.820313,0.000000,1.000000,15.000000,,,,0.000000,4.000000,4.000000,4.000000,4.000000,4.000000,100.000000,,,,,,,,9.000000,0.000000,0.339398,0.553711,0.332031,-0.684082,0.985855,0.085451,-0.170413,-13.339294,7.142810,59.807442
1618379254.786640,19.000000,0.000000,4197.436035,4237.948730,4183.077148,4161.025879,4201.538574,0.000000,1.000000,15.000000,,,,0.000000,4.000000,4.000000,4.000000,4.000000,4.000000,100.000000,,,,,,,,,,,,,,,,,,,
1618379254.794457,20.000000,0.000000,4191.794922,4240.512695,4178.461426,4144.102539,4195.897461,0.000000,1.000000,15.000000,,,,0.000000,4.000000,4.000000,4.000000,4.000000,4.000000,100.000000,,,,,,,,10.000000,0.000000,0.339398,0.553711,0.332031,-0.684082,0.993179,0.084474,-0.150881,-13.261488,9.718374,58.432480
1618379254.802273,21.000000,0.000000,4191.794922,4248.717773,4179.487305,4147.692383,4195.384766,0.000000,1.000000,15.000000,,,,0.000000,4.000000,4.000000,4.000000,4.000000,4.000000,100.000000,,,,,,,,,,,,,,,,,,,
1618379254.810090,22.000000,0.000000,4200.000000,4258.461426,4185.128418,4177.436035,4206.153809,0.000000,1.000000,15.000000,,,,0.000000,4.000000,4.000000,4.000000,4.000000,4.000000,100.000000,,,,,,,,11.000000,0.000000,0.339637,0.553711,0.331787,-0.684082,0.988296,0.077150,-0.168460,-13.191462,8.148383,58.929661
1618379254.817906,23.000000,0.000000,4198.974121,4263.077148,4185.128418,4178.974121,4201.538574,0.000000,1.000000,15.000000,,,,0.000000,4.000000,4.000000,4.000000,4.000000,4.000000,100.000000,,,,,,,,,,,,,,,,,,,
1618379254.825723,24.000000,0.000000,4191.794922,4262.051270,4183.589844,4164.102539,4185.641113,0.000000,1.000000,15.000000,,,,0.000000,4.000000,4.000000,4.000000,4.000000,4.000000,100.000000,,,,,,,,12.000000,0.000000,0.339637,0.553711,0.331787,-0.684082,0.994644,0.091310,-0.167483,-13.188253,6.735391,59.436939
1618379254.833439,25.000000,0.000000,4187.179688,4255.897461,4176.922852,4166.666504,4181.538574,0.000000,1.000000,15.000000,,,,0.000000,4.000000,4.000000,4.000000,4.000000,4.000000,100.000000,,,,,,,,,,,,,,,,,,,
1618379254.841255,26.000000,0.000000,4178.974121,4245.128418,4163.077148,4160.000000,4177.948730,0.000000,1.000000,15.000000,,,,0.000000,4.000000,4.000000,4.000000,4.000000,4.000000,100.000000,,,,,,,,13.000000,0.000000,0.339637,0.553711,0.331787,-0.684082,0.998062,0.076661,-0.165530,-13.304996,5.463698,59.833675
1618379254.849072,27.000000,0.000000,4168.717773,4239.487305,4158.974121,4137.948730,4162.051270,0.000000,1.000000,15.000000,,,,0.000000,4.000000,4.000000,4.000000,4.000000,4.000000,100.000000,,,,,,,,,,,,,,,,,,,
1618379254.856888,28.000000,0.000000,4170.256348,4248.205078,4160.000000,4136.922852,4153.846191,0.000000,1.000000,15.000000,,,,0.000000,4.000000,4.000000,4.000000,4.000000,4.000000,100.000000,,,,,,,,14.000000,0.000000,0.339875,0.553711,0.331543,-0.684082,0.981949,0.084962,-0.161135,-13.230619,4.319175,60.310368
1618379254.864704,29.000000,0.000000,4180.000000,4252.820313,4158.974121,4155.384766,4166.666504,0.000000,1.000000,15.000000,,,,0.000000,4.000000,4.000000,4.000000,4.000000,4.000000,100.000000,,,,,,,,,,,,,,,,,,,
1618379254.872521,30.000000,0.000000,4189.743652,4246.153809,4165.128418,4160.000000,4183.589844,0.000000,1.000000,15.000000,,,,0.000000,4.000000,4.000000,4.000000,4.000000,4.000000,100.000000,,,,,,,,15.000000,0.000000,0.338985,0.553955,0.331543,-0.684326,0.989273,0.081544,-0.173831,-13.044050,7.057472,58.765484
1618379254.880337,31.000000,0.000000,4191.282227,4245.128418,4167.692383,4148.205078,4186.153809,0.000000,1.000000,15.000000,,,,0.000000,4.000000,4.000000,4.000000,4.000000,4.000000,100.000000,,,,,,,,,,,,,,,,,,,
1618379254.888153,32.000000,0.000000,4191.794922,4249.230957,4160.000000,4150.769043,4184.102539,0.000000,1.000000,15.000000,,,,0.000000,4.000000,4.000000,4.000000,4.000000,4.000000,100.000000,,,,,,,,16.000000,0.000000,0.338985,0.553955,0.331543,-0.684326,0.987320,0.073243,-0.180179,-13.055583,5.753571,59.169548
1618379254.896070,33.000000,0.000000,4200.000000,4241.538574,4162.563965,4171.794922,4194.871582,0.000000,1.000000,15.000000,,,,0.000000,4.000000,4.000000,4.000000,4.000000,4.000000,100.000000,,,,,,,,,,,,,,,,,,,
1618379254.903886,34.000000,0.000000,4195.384766,4218.974121,4170.256348,4169.230957,4195.384766,0.000000,1.000000,15.000000,,,,0.000000,4.000000,4.000000,4.000000,4.000000,4.000000,100.000000,,,,,,,,17.000000,0.000000,0.339477,0.553955,0.331543,-0.684082,1.001968,0.085451,-0.166995,-13.006147,4.580060,59.712650
1618379254.911703,35.000000,0.000000,4185.128418,4221.538574,4171.282227,4153.333496,4186.153809,0.000000,1.000000,15.000000,,,,0.000000,4.000000,4.000000,4.000000,4.000000,4.000000,100.000000,,,,,,,,,,,,,,,,,,,
1618379254.919519,36.000000,0.000000,4198.461426,4252.820313,4177.436035,4158.461426,4197.948730,0.000000,1.000000,15.000000,,,,0.000000,4.000000,4.000000,4.000000,4.000000,4.000000,100.000000,,,,,,,,18.000000,0.000000,0.339716,0.553955,0.331299,-0.684082,1.000992,0.078126,-0.166506,-13.081286,7.411899,60.141632
1618379254.927336,37.000000,0.000000,4214.871582,4259.487305,4184.102539,4156.922852,4212.307617,0.000000,1.000000,15.000000,,,,0.000000,4.000000,4.000000,4.000000,4.000000,4.000000,100.000000,,,,,,,,,,,,,,,,,,,
1618379254.935153,38.000000,0.000000,4210.256348,4245.641113,4184.615234,4152.307617,4210.769043,0.000000,1.000000,15.000000,,,,0.000000,4.000000,4.000000,4.000000,4.000000,4.000000,100.000000,,,,,,,,19.000000,0.000000,0.339462,0.553955,0.331055,-0.684326,0.990250,0.082033,-0.173831,-13.029280,5.952925,60.587528
1618379254.942969,39.000000,0.000000,4204.615234,4246.153809,4186.153809,4158.461426,4207.692383,0.000000,1.000000,15.000000,,,,0.000000,4.000000,4.000000,4.000000,4.000000,4.000000,100.000000,,,,,,,,,,,,,,,,,,,
1618379254.950786,40.000000,0.000000,4208.205078,4247.179688,4187.692383,4155.897461,4210.769043,0.000000,1.000000,15.000000,,,,0.000000,4.000000,4.000000,4.000000,4.000000,4.000000,100.000000,,,,,,,,20.000000,0.000000,0.339462,0.553955,0.331055,-0.684326,0.980484,0.084962,-0.175296,-13.042290,8.587662,59.074741
1618379254.958602,41.000000,0.000000,4215.897461,4247.692383,4194.358887,4165.128418,4213.846191,0.000000,1.000000,15.000000,,,,0.000000,4.000000,4.000000,4.000000,4.000000,4.000000,100.000000,,,,,,,,,,,,,,,,,,,
1618379254.966519,42.000000,0.000000,4217.436035,4253.846191,4203.077148,4187.692383,4214.358887,0.000000,1.000000,15.000000,,,,0.000000,4.000000,4.000000,4.000000,4.000000,4.000000,100.000000,,,,,,,,21.000000,0.000000,0.339063,0.554199,0.331055,-0.684326,0.983902,0.084962,-0.180667,-12.994184,10.839295,57.773052
1618379254.974335,43.000000,0.000000,4213.846191,4250.256348,4196.922852,4185.128418,4210.256348,0.000000,1.000000,15.000000,,,,0.000000,4.000000,4.000000,4.000000,4.000000,4.000000,100.000000,,,,,,,,,,,,,,,,,,,
1618379254.982152,44.000000,0.000000,4216.410156,4244.102539,4181.538574,4161.538574,4202.563965,0.000000,1.000000,15.000000,,,,0.000000,4.000000,4.000000,4.000000,4.000000,4.000000,100.000000,,,,,,,,22.000000,0.000000,0.339063,0.554199,0.331055,-0.684326,0.994156,0.088869,-0.171878,-13.190149,12.985395,56.541714
1618379254.989968,45.000000,0.000000,4219.487305,4242.051270,4175.384766,4157.948730,4204.615234,0.000000,1.000000,15.000000,,,,0.000000,4.000000,4.000000,4.000000,4.000000,4.000000,100.000000,,,,,,,,,,,,,,,,,,,
1618379254.997785,46.000000,0.000000,4214.358887,4243.589844,4177.948730,4160.000000,4214.358887,0.000000,1.000000,15.000000,,,,0.000000,4.000000,4.000000,4.000000,4.000000,4.000000,100.000000,,,,,,,,23.000000,0.000000,0.339063,0.554199,0.331055,-0.684326,0.986831,0.087404,-0.168460,-13.127257,11.208333,57.467232
1618379255.005601,47.000000,0.000000,4208.205078,4246.153809,4175.897461,4153.846191,4212.820313,0.000000,1.000000,15.000000,,,,0.000000,4.000000,4.000000,4.000000,4.000000,4.000000,100.000000,,,,,,,,,,,,,,,,,,,
1618379255.013418,48.000000,0.000000,4208.717773,4237.436035,4170.256348,4154.358887,4203.077148,0.000000,1.000000,15.000000,,,,0.000000,4.000000,4.000000,4.000000,4.000000,4.000000,100.000000,,,,,,,,24.000000,0.000000,0.339301,0.554199,0.330811,-0.684326,0.986831,0.078614,-0.170901,-13.130469,13.437160,56.266476
1618379255.021235,49.000000,0.000000,4208.717773,4231.794922,4171.282227,4137.436035,4207.179688,0.000000,1.000000,15.000000,,,,0.000000,4.000000,4.000000,4.000000,4.000000,4.000000,100.000000,,,,,,,,,,,,,,,,,,,
1618379255.029051,50.000000,0.000000,4206.666504,4244.615234,4175.897461,4126.153809,4214.358887,0.000000,1.000000,15.000000,,,,0.000000,4.000000,4.000000,4.000000,4.000000,4.000000,100.000000,,,,,,,,25.000000,0.000000,0.339301,0.554199,0.330811,-0.684326,0.983413,0.085451,-0.175296,-13.013730,11.495291,57.040073
1618379255.036868,51.000000,0.000000,4205.128418,4253.333496,4174.358887,4149.743652,4202.051270,0.000000,1.000000,15.000000,,,,0.000000,4.000000,4.000000,4.000000,4.000000,4.000000,100.000000,,,,,,,,,,,,,,,,,,,
1618379255.044584,52.000000,0.000000,4205.128418,4241.025879,4170.256348,4171.794922,4191.794922,0.000000,1.000000,15.000000,,,,0.000000,4.000000,4.000000,4.000000,4.000000,4.000000,100.000000,,,,,,,,26.000000,0.000000,0.339301,0.554199,0.330811,-0.684326,0.992691,0.084474,-0.176272,-13.028295,9.807423,57.676495
1618379255.052400,53.000000,0.000000,4207.692383,4230.769043,4169.743652,4165.128418,4200.512695,0.000000,1.000000,15.000000,,,,0.000000,4.000000,4.000000,4.000000,4.000000,4.000000,100.000000,,,,,,,,,,,,,,,,,,,
1618379255.060217,54.000000,0.000000,4203.077148,4236.410156,4168.717773,4154.358887,4200.512695,0.000000,1.000000,15.000000,,,,0.000000,4.000000,4.000000,4.000000,4.000000,4.000000,100.000000,,,,,,,,27.000000,0.000000,0.339301,0.554199,0.330811,-0.684326,0.998550,0.077638,-0.177737,-13.101219,8.228527,58.309090
1618379255.068033,55.000000,0.000000,4201.538574,4245.128418,4170.769043,4157.948730,4196.922852,0.000000,1.000000,15.000000,,,,0.000000,4.000000,4.000000,4.000000,4.000000,4.000000,100.000000,,,,,,,,,,,,,,,,,,,
1618379255.075849,56.000000,0.000000,4214.358887,4245.641113,4174.871582,4160.512695,4208.717773,0.000000,1.000000,15.000000,,,,0.000000,4.000000,4.000000,4.000000,4.000000,4.000000,100.000000,,,,,,,,28.000000,0.000000,0.339301,0.554199,0.330811,-0.684326,0.996597,0.083986,-0.166506,-13.166850,10.695519,58.938240
1618379255.083666,57.000000,0.000000,4219.487305,4241.025879,4179.487305,4162.051270,4219.487305,0.000000,1.000000,15.000000,,,,0.000000,4.000000,4.000000,4.000000,4.000000,4.000000,100.000000,,,,,,,,,,,,,,,,,,,
1618379255.091482,58.000000,0.000000,4216.410156,4243.077148,4186.153809,4169.743652,4218.461426,0.000000,1.000000,15.000000,,,,0.000000,4.000000,4.000000,4.000000,4.000000,4.000000,100.000000,,,,,,,,29.000000,0.000000,0.338902,0.554443,0.330811,-0.684326,0.985367,0.083497,-0.181643,-13.106288,8.967999,59.504475
1618379255.099298,59.000000,0.000000,4225.641113,4248.717773,4191.282227,4171.794922,4221.025879,0.000000,1.000000,15.000000,,,,0.000000,4.000000,4.000000,4.000000,4.000000,4.000000,100.000000,,,,,,,,,,,,,,,,,,,
1618379255.107014,60.000000,0.000000,4233.333496,4253.846191,4193.333496,4164.615234,4227.179688,0.000000,1.000000,15.000000,,,,0.000000,4.000000,4.000000,4.000000,4.000000,4.000000,100.000000,,,,,,,,30.000000,0.000000,0.338902,0.554443,0.330811,-0.684326,0.984878,0.067384,-0.176272,-12.991966,7.473045,59.954273
1618379255.114831,61.000000,0.000000,4222.563965,4252.820313,4191.794922,4169.230957,4223.589844,0.000000,1.000000,15.000000,,,,0.000000,4.000000,4.000000,4.000000,4.000000,4.000000,100.000000,,,,,,,,,,,,,,,,,,,
1618379255.122647,62.000000,0.000000,4215.384766,4243.077148,4190.256348,4185.128418,4221.538574,0.000000,1.000000,15.000000,,,,0.000000,4.000000,4.000000,4.000000,4.000000,4.000000,100.000000,,,,,,,,31.000000,0.000000,0.339063,0.554199,0.331055,-0.684326,0.985855,0.084962,-0.170901,-13.068523,10.075401,58.504814
1618379255.130463,63.000000,0.000000,4224.102539,4243.589844,4190.256348,4175.897461,4227.692383,0.000000,1.000000,15.000000,,,,0.000000,4.000000,4.000000,4.000000,4.000000,4.000000,100.000000,1.000000,100.000000,4.000000,4.000000,4.000000,4.000000,4.000000,,,,,,,,,,,,
1618379255.138279,64.000000,0.000000,4232.820313,4251.282227,4187.692383,4163.589844,4230.256348,450.000000,1.000000,15.000000,,,,0.000000,4.000000,4.000000,4.000000,4.000000,4.000000,100.000000,,,,,,,,32.000000,0.000000,0.339063,0.554199,0.331055,-0.684326,0.992691,0.085451,-0.168460,-13.376686,12.417521,59.114391
1618379255.146195,65.000000,0.000000,4231.282227,4245.128418,4184.102539,4177.948730,4225.641113,450.000000,1.000000,15.000000,,,,0.000000,4.000000,4.000000,4.000000,4.000000,4.000000,100.000000,,,,,,,,,,,,,,,,,,,
1618379255.154012,66.000000,0.000000,4224.615234,4242.051270,4177.436035,4190.256348,4222.563965,16264.000000,1.000000,15.000000,,,,0.000000,4.000000,4.000000,4.000000,4.000000,4.000000,100.000000,,,,,,,,33.000000,0.000000,0.339063,0.554199,0.331055,-0.684326,0.991714,0.069825,-0.169924,-13.235325,10.577616,59.603195
1618379255.161828,67.000000,0.000000,4227.179688,4254.871582,4176.410156,4186.153809,4228.717773,450.000000,1.000000,15.000000,,,,0.000000,4.000000,4.000000,4.000000,4.000000,4.000000,100.000000,,,,,,,,,,,,,,,,,,,
1618379255.169645,68.000000,0.000000,4240.512695,4267.692383,4189.743652,4183.589844,4239.487305,16327.000000,1.000000,15.000000,,,,0.000000,4.000000,4.000000,4.000000,4.000000,4.000000,100.000000,,,,,,,,34.000000,0.000000,0.338824,0.554199,0.331299,-0.684326,0.997574,0.078126,-0.168460,-13.347361,9.041331,60.043121
1618379255.177461,69.000000,0.000000,4247.692383,4263.589844,4201.025879,4189.230957,4243.077148,450.000000,1.000000,15.000000,,,,0.000000,4.000000,4.000000,4.000000,4.000000,4.000000,100.000000,,,,,,,,,,,,,,,,,,,
1618379255.185278,70.000000,0.000000,4237.948730,4247.692383,4197.436035,4178.974121,4234.871582,16190.000000,1.000000,15.000000,,,,0.000000,4.000000,4.000000,4.000000,4.000000,4.000000,100.000000,,,,,,,,35.000000,0.000000,0.338824,0.554199,0.331299,-0.684326,0.994644,0.074220,-0.162112,-13.328563,7.838121,60.558685
1618379255.193095,71.000000,0.000000,4227.179688,4248.717773,4193.846191,4167.179688,4230.769043,450.000000,1.000000,15.000000,,,,0.000000,4.000000,4.000000,4.000000,4.000000,4.000000,100.000000,,,,,,,,,,,,,,,,,,,
1618379255.200911,72.000000,0.000000,4231.282227,4257.436035,4195.384766,4173.333496,4229.743652,450.000000,1.000000,15.000000,,,,0.000000,4.000000,4.000000,4.000000,4.000000,4.000000,100.000000,,,,,,,,36.000000,0.000000,0.339063,0.554199,0.331055,-0.684326,0.991714,0.069825,-0.169924,-13.311645,10.403970,58.929153
1618379255.208728,73.000000,0.000000,4237.948730,4251.794922,4194.871582,4181.538574,4223.589844,16300.000000,1.000000,15.000000,,,,0.000000,4.000000,4.000000,4.000000,4.000000,4.000000,100.000000,,,,,,,,,,,,,,,,,,,
1618379255.216644,74.000000,0.000000,4235.384766,4252.307617,4194.358887,4186.666504,4228.717773,450.000000,1.000000,15.000000,,,,0.000000,4.000000,4.000000,4.000000,4.000000,4.000000,100.000000,,,,,,,,37.000000,0.000000,0.338824,0.554199,0.331299,-0.684326,0.994644,0.074220,-0.162112,-13.296418,9.064496,59.556110
1618379255.224461,75.000000,0.000000,4230.256348,4263.589844,4194.358887,4188.205078,4240.000000,16148.000000,1.000000,15.000000,,,,0.000000,4.000000,4.000000,4.000000,4.000000,4.000000,100.000000,,,,,,,,,,,,,,,,,,,
1618379255.232278,76.000000,0.000000,4232.820313,4260.512695,4200.000000,4187.692383,4236.922852,450.000000,1.000000,15.000000,,,,0.000000,4.000000,4.000000,4.000000,4.000000,4.000000,100.000000,,,,,,,,38.000000,0.000000,0.338586,0.554199,0.331543,-0.684326,0.979507,0.087892,-0.177249,-13.342530,11.388076,60.060558
1618379255.240095,77.000000,0.000000,4237.436035,4262.563965,4212.820313,4186.153809,4234.358887,450.000000,1.000000,15.000000,,,,0.000000,4.000000,4.000000,4.000000,4.000000,4.000000,100.000000,,,,,,,,,,,,,,,,,,,
1618379255.247912,78.000000,0.000000,4238.461426,4277.948730,4212.307617,4182.563965,4240.512695,450.000000,1.000000,15.000000,,,,0.000000,4.000000,4.000000,4.000000,4.000000,4.000000,100.000000,,,,,,,,39.000000,0.000000,0.338586,0.554199,0.331543,-0.684326,0.990738,0.076661,-0.166506,-13.384030,13.479298,58.600471
1618379255.255728,79.000000,0.000000,4229.743652,4268.205078,4197.436035,4183.077148,4232.307617,16148.000000,1.000000,15.000000,,,,0.000000,4.000000,4.000000,4.000000,4.000000,4.000000,100.000000,,,,,,,,,,,,,,,,,,,
1618379255.263545,80.000000,0.000000,4221.025879,4249.743652,4192.307617,4177.436035,4221.025879,450.000000,1.000000,15.000000,,,,0.000000,4.000000,4.000000,4.000000,4.000000,4.000000,100.000000,,,,,,,,40.000000,0.000000,0.339079,0.554199,0.331543,-0.684082,0.987808,0.091798,-0.181643,-13.361566,15.361398,57.286392
1618379255.271362,81.000000,0.000000,4229.230957,4261.025879,4196.922852,4164.102539,4231.282227,450.000000,1.000000,15.000000,,,,0.000000,4.000000,4.000000,4.000000,4.000000,4.000000,100.000000,,,,,,,,,,,,,,,,,,,
1618379255.279179,82.000000,0.000000,4236.410156,4274.871582,4194.871582,4168.717773,4236.410156,450.000000,1.000000,15.000000,,,,0.000000,4.000000,4.000000,4.000000,4.000000,4.000000,100.000000,,,,,,,,41.000000,0.000000,0.339079,0.554199,0.331543,-0.684082,0.988296,0.079103,-0.174807,-13.401162,13.406550,57.957996
1618379255.287095,83.000000,0.000000,4223.589844,4261.025879,4184.102539,4172.820313,4225.128418,16148.000000,1.000000,15.000000,,,,0.000000,4.000000,4.000000,4.000000,4.000000,4.000000,100.000000,,,,,,,,,,,,,,,,,,,
1618379255.294912,84.000000,0.000000,4208.205078,4232.820313,4167.179688,4143.077148,4211.794922,450.000000,1.000000,15.000000,,,,0.000000,4.000000,4.000000,4.000000,4.000000,4.000000,100.000000,,,,,,,,42.000000,0.000000,0.339079,0.554199,0.331543,-0.684082,0.987808,0.089357,-0.174319,-13.317168,11.527557,58.682072
1618379255.302729,85.000000,0.000000,4208.205078,4216.410156,4159.487305,4124.102539,4200.000000,450.000000,1.000000,15.000000,,,,0.000000,4.000000,4.000000,4.000000,4.000000,4.000000,100.000000,,,,,,,,,,,,,,,,,,,
1618379255.310546,86.000000,0.000000,4221.025879,4223.589844,4170.769043,4149.743652,4202.563965,450.000000,1.000000,15.000000,,,,0.000000,4.000000,4.000000,4.000000,4.000000,4.000000,100.000000,,,,,,,,43.000000,0.000000,0.338840,0.554199,0.331787,-0.684082,0.997086,0.082033,-0.169924,-13.241574,9.776648,59.273926
1618379255.318363,87.000000,0.000000,4239.487305,4245.128418,4183.077148,4175.384766,4227.179688,16148.000000,1.000000,15.000000,,,,0.000000,4.000000,4.000000,4.000000,4.000000,4.000000,100.000000,,,,,,,,,,,,,,,,,,,
1618379255.326179,88.000000,0.000000,4248.717773,4255.897461,4184.615234,4169.743652,4247.179688,450.000000,1.000000,15.000000,,,,0.000000,4.000000,4.000000,4.000000,4.000000,4.000000,100.000000,,,,,,,,44.000000,0.000000,0.339172,0.554443,0.331543,-0.683838,0.997574,0.077150,-0.170901,-13.293170,8.260645,59.686962
1618379255.333996,89.000000,0.000000,4252.820313,4252.820313,4188.205078,4169.230957,4252.307617,450.000000,1.000000,15.000000,,,,0.000000,4.000000,4.000000,4.000000,4.000000,4.000000,100.000000,,,,,,,,,,,,,,,,,,,
1618379255.341813,90.000000,0.000000,4259.487305,4255.897461,4204.102539,4187.692383,4254.358887,450.000000,1.000000,15.000000,,,,0.000000,4.000000,4.000000,4.000000,4.000000,4.000000,100.000000,,,,,,,,45.000000,0.000000,0.339172,0.554443,0.331543,-0.683838,1.000015,0.074708,-0.168948,-13.339607,6.776611,59.939064
1618379255.349730,91.000000,0.000000,4257.948730,4262.051270,4207.692383,4189.230957,4252.307617,16148.000000,1.000000,15.000000,,,,0.000000,4.000000,4.000000,4.000000,4.000000,4.000000,100.000000,,,,,,,,,,,,,,,,,,,
1618379255.357546,92.000000,0.000000,4244.615234,4252.820313,4188.205078,4168.205078,4243.077148,450.000000,1.000000,15.000000,,,,0.000000,4.000000,4.000000,4.000000,4.000000,4.000000,100.000000,,,,,,,,46.000000,0.000000,0.339664,0.554443,0.331543,-0.683594,1.000015,0.074708,-0.163088,-13.142138,9.388795,58.550941
1618379255.365363,93.000000,0.000000,4232.307617,4236.922852,4171.794922,4161.025879,4232.820313,450.000000,1.000000,15.000000,,,,0.000000,4.000000,4.000000,4.000000,4.000000,4.000000,100.000000,,,,,,,,,,,,,,,,,,,
1618379255.373180,94.000000,0.000000,4226.666504,4238.974121,4173.333496,4159.487305,4226.666504,450.000000,1.000000,15.000000,,,,0.000000,4.000000,4.000000,4.000000,4.000000,4.000000,100.000000,,,,,,,,47.000000,0.000000,0.339664,0.554443,0.331543,-0.683594,0.984390,0.068849,-0.168460,-13.084047,7.911578,59.096088
1618379255.380997,95.000000,0.000000,4219.487305,4244.102539,4174.358887,4152.307617,4223.589844,16148.000000,1.000000,15.000000,,,,0.000000,4.000000,4.000000,4.000000,4.000000,4.000000,100.000000,,,,,,,,,,,,,,,,,,,
1618379255.388814,96.000000,0.000000,4225.128418,4235.384766,4169.230957,4161.025879,4222.563965,450.000000,1.000000,15.000000,,,,0.000000,4.000000,4.000000,4.000000,4.000000,4.000000,100.000000,,,,,,,,48.000000,0.000000,0.339172,0.554443,0.331543,-0.683838,0.988785,0.082521,-0.174319,-13.151396,6.641897,59.586723
1618379255.396630,97.000000,0.000000,4244.102539,4237.948730,4177.948730,4166.666504,4233.333496,450.000000,1.000000,15.000000,,,,0.000000,4.000000,4.000000,4.000000,4.000000,4.000000,100.000000,,,,,,,,,,,,,,,,,,,
1618379255.404447,98.000000,0.000000,4248.205078,4257.436035,4189.743652,4162.563965,4242.563965,450.000000,1.000000,15.000000,,,,0.000000,4.000000,4.000000,4.000000,4.000000,4.000000,100.000000,,,,,,,,49.000000,0.000000,0.338933,0.554443,0.331787,-0.683838,1.001968,0.075196,-0.170901,-13.152194,9.207737,57.994576
1618379255.412264,99.000000,0.000000,4240.000000,4262.563965,4186.153809,4169.230957,4236.922852,16148.000000,1.000000,15.000000,,,,0.000000,4.000000,4.000000,4.000000,4.000000,4.000000,100.000000,,,,,,,,,,,,,,,,,,,
1618379255.420081,100.000000,0.000000,4233.846191,4251.282227,4178.461426,4168.717773,4229.230957,450.000000,1.000000,15.000000,,,,0.000000,4.000000,4.000000,4.000000,4.000000,4.000000,100.000000,,,,,,,,50.000000,0.000000,0.338933,0.554443,0.331787,-0.683838,0.988785,0.083497,-0.166506,-13.212729,7.748625,56.741085
1618379255.427997,101.000000,0.000000,4223.589844,4243.589844,4174.871582,4153.846191,4223.589844,450.000000,1.000000,15.000000,,,,0.000000,4.000000,4.000000,4.000000,4.000000,4.000000,100.000000,,,,,,,,,,,,,,,,,,,
1618379255.435814,102.000000,0.000000,4215.384766,4236.922852,4174.358887,4152.307617,4213.333496,450.000000,1.000000,15.000000,,,,0.000000,4.000000,4.000000,4.000000,4.000000,4.000000,100.000000,,,,,,,,51.000000,0.000000,0.338694,0.554443,0.332031,-0.683838,1.002945,0.094240,-0.161624,-13.267209,6.196163,57.467220
1618379255.443631,103.000000,0.000000,4221.025879,4232.820313,4173.333496,4160.000000,4208.717773,16148.000000,1.000000,15.000000,,,,0.000000,4.000000,4.000000,4.000000,4.000000,4.000000,100.000000,,,,,,,,,,,,,,,,,,,
1618379255.451448,104.000000,0.000000,4224.102539,4230.256348,4169.743652,4156.922852,4213.333496,450.000000,1.000000,15.000000,,,,0.000000,4.000000,4.000000,4.000000,4.000000,4.000000,100.000000,,,,,,,,52.000000,0.000000,0.338694,0.554443,0.332031,-0.683838,1.003922,0.085939,-0.166995,-13.316241,5.038208,58.360004
1618379255.459265,105.000000,0.000000,4220.000000,4219.487305,4163.077148,4154.871582,4214.871582,450.000000,1.000000,15.000000,,,,0.000000,4.000000,4.000000,4.000000,4.000000,4.000000,100.000000,,,,,,,,,,,,,,,,,,,
1618379255.467081,106.000000,0.000000,4218.974121,4223.589844,4163.077148,4153.333496,4213.846191,450.000000,1.000000,15.000000,,,,0.000000,4.000000,4.000000,4.000000,4.000000,4.000000,100.000000,,,,,,,,53.000000,0.000000,0.338947,0.554443,0.332275,-0.683594,0.998550,0.081056,-0.166018,-13.180924,7.824233,57.069973
1618379255.474898,107.000000,0.000000,4215.384766,4241.025879,4167.179688,4147.179688,4205.641113,16148.000000,1.000000,15.000000,,,,0.000000,4.000000,4.000000,4.000000,4.000000,4.000000,100.000000,,,,,,,,,,,,,,,,,,,
1618379255.482715,108.000000,0.000000,4211.282227,4238.974121,4163.589844,4149.230957,4192.820313,450.000000,1.000000,15.000000,,,,0.000000,4.000000,4.000000,4.000000,4.000000,4.000000,100.000000,,,,,,,,54.000000,0.000000,0.338854,0.554199,0.332275,-0.683838,0.981949,0.086427,-0.170901,-13.178770,10.271839,58.002480
1618379255.490532,109.000000,0.000000,4209.743652,4229.743652,4160.512695,4153.333496,4190.256348,450.000000,1.000000,15.000000,,,,0.000000,4.000000,4.000000,4.000000,4.000000,4.000000,100.000000,,,,,,,,,,,,,,,,,,,
1618379255.498448,110.000000,0.000000,4208.205078,4231.282227,4165.641113,4147.692383,4200.000000,450.000000,1.000000,15.000000,,,,0.000000,4.000000,4.000000,4.000000,4.000000,4.000000,100.000000,,,,,,,,55.000000,0.000000,0.338614,0.554199,0.332520,-0.683838,0.976089,0.077638,-0.159182,-13.117016,12.414869,56.568752
1618379255.506265,111.000000,0.000000,4207.692383,4224.615234,4176.410156,4153.846191,4204.615234,16148.000000,1.000000,15.000000,,,,0.000000,4.000000,4.000000,4.000000,4.000000,4.000000,100.000000,,,,,,,,,,,,,,,,,,,
1618379255.514082,112.000000,0.000000,4215.384766,4223.077148,4181.025879,4173.846191,4207.692383,450.000000,1.000000,15.000000,,,,0.000000,4.000000,4.000000,4.000000,4.000000,4.000000,100.000000,,,,,,,,56.000000,0.000000,0.338774,0.553955,0.332764,-0.683838,0.995621,0.079103,-0.171389,-13.121252,10.635044,57.371937
1618379255.521899,113.000000,0.000000,4223.077148,4238.461426,4179.487305,4174.871582,4215.897461,450.000000,1.000000,15.000000,,,,0.000000,4.000000,4.000000,4.000000,4.000000,4.000000,100.000000,,,,,,,,,,,,,,,,,,,
1618379255.529716,114.000000,0.000000,4220.000000,4232.307617,4178.461426,4161.025879,4215.897461,450.000000,1.000000,15.000000,,,,0.000000,4.000000,4.000000,4.000000,4.000000,4.000000,100.000000,,,,,,,,57.000000,0.000000,0.338774,0.553955,0.332764,-0.683838,0.978531,0.076173,-0.155764,-13.125065,12.741755,56.120895
1618379255.537532,115.000000,0.000000,4221.025879,4222.051270,4183.589844,4162.563965,4222.051270,16148.000000,1.000000,15.000000,,,,0.000000,4.000000,4.000000,4.000000,4.000000,4.000000,100.000000,,,,,,,,,,,,,,,,,,,
1618379255.545349,116.000000,0.000000,4228.717773,4228.717773,4191.282227,4171.282227,4230.256348,450.000000,1.000000,15.000000,,,,0.000000,4.000000,4.000000,4.000000,4.000000,4.000000,100.000000,,,,,,,,58.000000,0.000000,0.338933,0.553711,0.333008,-0.683838,0.996597,0.083497,-0.172366,-13.188312,10.929240,54.994961
1618379255.553166,117.000000,0.000000,4225.128418,4224.102539,4185.641113,4170.256348,4223.077148,450.000000,1.000000,15.000000,,,,0.000000,4.000000,4.000000,4.000000,4.000000,4.000000,100.000000,,,,,,,,,,,,,,,,,,,
1618379255.560983,118.000000,0.000000,4217.948730,4221.538574,4173.846191,4161.538574,4217.948730,450.000000,1.000000,15.000000,,,,0.000000,4.000000,4.000000,4.000000,4.000000,4.000000,100.000000,,,,,,,,59.000000,0.000000,0.338200,0.553711,0.333252,-0.684082,0.988785,0.087404,-0.165042,-13.245234,9.238163,55.895706
1618379255.568800,119.000000,0.000000,4224.615234,4241.538574,4175.897461,4150.769043,4226.666504,16148.000000,1.000000,15.000000,,,,0.000000,4.000000,4.000000,4.000000,4.000000,4.000000,100.000000,,,,,,,,,,,,,,,,,,,
1618379255.576616,120.000000,0.000000,4225.128418,4251.794922,4180.000000,4149.230957,4221.538574,450.000000,1.000000,15.000000,,,,0.000000,4.000000,4.000000,4.000000,4.000000,4.000000,100.000000,,,,,,,,60.000000,0.000000,0.337959,0.553711,0.333496,-0.684082,0.996109,0.082521,-0.173342,-13.356279,7.716193,56.826012
1618379255.584533,121.000000,0.000000,4216.410156,4239.487305,4179.487305,4159.487305,4212.820313,450.000000,1.000000,15.000000,,,,0.000000,4.000000,4.000000,4.000000,4.000000,4.000000,100.000000,,,,,,,,,,,,,,,,,,,
1618379255.592349,122.000000,0.000000,4222.051270,4234.871582,4182.563965,4170.769043,4224.615234,450.000000,1.000000,15.000000,,,,0.000000,4.000000,4.000000,4.000000,4.000000,4.000000,100.000000,,,,,,,,61.000000,0.000000,0.337959,0.553711,0.333496,-0.684082,1.000992,0.078614,-0.170413,-13.276774,6.286604,57.603470
1618379255.600166,123.000000,0.000000,4230.769043,4237.436035,4181.538574,4171.794922,4233.846191,16148.000000,1.000000,15.000000,,,,0.000000,4.000000,4.000000,4.000000,4.000000,4.000000,100.000000,,,,,,,,,,,,,,,,,,,
1618379255.607982,124.000000,0.000000,4230.256348,4230.769043,4175.897461,4170.256348,4228.205078,450.000000,1.000000,15.000000,,,,0.000000,4.000000,4.000000,4.000000,4.000000,4.000000,100.000000,,,,,,,,62.000000,0.000000,0.337959,0.553711,0.333496,-0.684082,0.983413,0.092287,-0.167971,-13.444481,8.947789,58.303181
1618379255.615799,125.000000,0.000000,4226.666504,4226.666504,4174.871582,4166.666504,4225.128418,450.000000,1.000000,15.000000,,,,0.000000,4.000000,4.000000,4.000000,4.000000,4.000000,100.000000,,,,,,,,,,,,,,,,,,,
1618379255.623616,126.000000,0.000000,4223.589844,4224.102539,4174.871582,4157.436035,4224.102539,450.000000,1.000000,15.000000,,,,0.000000,4.000000,4.000000,4.000000,4.000000,4.000000,100.000000,,,,,,,,63.000000,0.000000,0.337959,0.553711,0.333496,-0.684082,0.998062,0.091310,-0.168460,-13.415971,7.454856,59.052555
1618379255.631432,127.000000,0.000000,4222.563965,4211.794922,4174.358887,4164.615234,4223.077148,233.000000,1.000000,15.000000,,,,0.000000,4.000000,4.000000,4.000000,4.000000,4.000000,100.000000,1.000000,91.666664,3.000000,4.000000,4.000000,4.000000,4.000000,,,,,,,,,,,,
1618379255.639249,0.000000,0.000000,4225.128418,4210.256348,4178.974121,4171.794922,4219.487305,450.000000,1.000000,15.000000,,,,0.000000,4.000000,4.000000,4.000000,4.000000,4.000000,100.000000,,,,,,,,0.000000,0.000000,0.337718,0.553711,0.333740,-0.684082,0.994644,0.082521,-0.174319,-13.390312,6.111217,59.607357
1618379255.647165,1.000000,0.000000,4225.641113,4230.769043,4181.025879,4155.384766,4214.871582,450.000000,1.000000,15.000000,,,,0.000000,4.000000,4.000000,4.000000,4.000000,4.000000,100.000000,,,,,,,,,,,,,,,,,,,
1618379255.654982,2.000000,0.000000,4225.128418,4242.051270,4175.384766,4158.461426,4217.948730,16314.000000,1.000000,15.000000,,,,0.000000,4.000000,4.000000,4.000000,4.000000,4.000000,100.000000,,,,,,,,1.000000,0.000000,0.337718,0.553711,0.333740,-0.684082,0.981460,0.093263,-0.169924,-13.367219,8.789941,58.072960
1618379255.662799,3.000000,0.000000,4224.615234,4226.153809,4173.333496,4178.974121,4218.461426,450.000000,1.000000,15.000000,,,,0.000000,4.000000,4.000000,4.000000,4.000000,4.000000,100.000000,,,,,,,,,,,,,,,,,,,
1618379255.670616,4.000000,0.000000,4221.025879,4216.410156,4173.846191,4168.205078,4207.692383,16267.000000,1.000000,15.000000,,,,0.000000,4.000000,4.000000,4.000000,4.000000,4.000000,100.000000,,,,,,,,2.000000,0.000000,0.337959,0.553711,0.333496,-0.684082,0.998062,0.091310,-0.168460,-13.166988,11.081161,56.751816
1618379255.678433,5.000000,0.000000,4222.051270,4227.179688,4171.794922,4155.384766,4207.179688,450.000000,1.000000,15.000000,,,,0.000000,4.000000,4.000000,4.000000,4.000000,4.000000,100.000000,,,,,,,,,,,,,,,,,,,
1618379255.686249,6.000000,0.000000,4223.077148,4232.307617,4171.282227,4168.205078,4212.820313,16285.000000,1.000000,15.000000,,,,0.000000,4.000000,4.000000,4.000000,4.000000,4.000000,100.000000,,,,,,,,3.000000,0.000000,0.337718,0.553711,0.333740,-0.684082,0.981460,0.093263,-0.169924,-13.166228,13.262890,55.502972
1618379255.694066,7.000000,0.000000,4221.025879,4231.794922,4177.436035,4179.487305,4211.794922,450.000000,1.000000,15.000000,,,,0.000000,4.000000,4.000000,4.000000,4.000000,4.000000,100.000000,,,,,,,,,,,,,,,,,,,
1618379255.701883,8.000000,0.000000,4223.077148,4236.410156,4183.077148,4169.743652,4216.410156,450.000000,1.000000,15.000000,,,,0.000000,4.000000,4.000000,4.000000,4.000000,4.000000,100.000000,,,,,,,,4.000000,0.000000,0.337718,0.553711,0.333740,-0.684082,0.985367,0.093751,-0.177249,-12.986097,15.106815,54.438828
1618379255.709700,9.000000,0.000000,4221.538574,4230.256348,4181.538574,4153.846191,4220.000000,16289.000000,1.000000,15.000000,,,,0.000000,4.000000,4.000000,4.000000,4.000000,4.000000,100.000000,,,,,,,,,,,,,,,,,,,
1618379255.717516,10.000000,0.000000,4215.384766,4218.974121,4180.512695,4154.871582,4214.871582,450.000000,1.000000,15.000000,,,,0.000000,4.000000,4.000000,4.000000,4.000000,4.000000,100.000000,,,,,,,,5.000000,0.000000,0.337718,0.553711,0.333740,-0.684082,0.994156,0.093263,-0.167483,-13.182872,16.885979,53.540913
1618379255.725433,11.000000,0.000000,4211.794922,4222.051270,4176.922852,4168.717773,4214.871582,16194.000000,1.000000,15.000000,,,,0.000000,4.000000,4.000000,4.000000,4.000000,4.000000,100.000000,,,,,,,,,,,,,,,,,,,
1618379255.733250,12.000000,0.000000,4214.358887,4222.051270,4171.282227,4168.205078,4221.025879,450.000000,1.000000,15.000000,,,,0.000000,4.000000,4.000000,4.000000,4.000000,4.000000,100.000000,,,,,,,,6.000000,0.000000,0.337812,0.553955,0.333740,-0.683838,0.987320,0.080079,-0.171389,-13.120708,14.659042,54.587067
1618379255.741067,13.000000,0.000000,4218.974121,4216.922852,4173.333496,4158.461426,4219.487305,450.000000,1.000000,15.000000,,,,0.000000,4.000000,4.000000,4.000000,4.000000,4.000000,100.000000,,,,,,,,,,,,,,,,,,,
1618379255.748884,14.000000,0.000000,4218.974121,4226.153809,4178.974121,4158.461426,4210.769043,450.000000,1.000000,15.000000,,,,0.000000,4.000000,4.000000,4.000000,4.000000,4.000000,100.000000,,,,,,,,7.000000,0.000000,0.337812,0.553955,0.333740,-0.683838,1.004410,0.088869,-0.161624,-13.124575,16.482985,55.528603
1618379255.756700,15.000000,0.000000,4221.538574,4234.871582,4175.897461,4157.436035,4214.358887,16194.000000,1.000000,15.000000,,,,0.000000,4.000000,4.000000,4.000000,4.000000,4.000000,100.000000,,,,,,,,,,,,,,,,,,,
1618379255.764517,16.000000,0.000000,4230.769043,4227.692383,4175.384766,4160.512695,4225.641113,0.000000,1.000000,15.000000,,,,0.000000,4.000000,4.000000,4.000000,4.000000,4.000000,100.000000,,,,,,,,8.000000,0.000000,0.337812,0.553955,0.333740,-0.683838,0.990738,0.086915,-0.167483,-13.068239,14.236531,56.316170
1618379255.772334,17.000000,0.000000,4230.256348,4225.641113,4181.025879,4177.948730,4223.589844,0.000000,1.000000,15.000000,,,,0.000000,4.000000,4.000000,4.000000,4.000000,4.000000,100.000000,,,,,,,,,,,,,,,,,,,
1618379255.780151,18.000000,0.000000,4217.948730,4226.153809,4175.897461,4177.436035,4211.282227,0.000000,1.000000,15.000000,,,,0.000000,4.000000,4.000000,4.000000,4.000000,4.000000,100.000000,,,,,,,,9.000000,0.000000,0.337812,0.553955,0.333740,-0.683838,0.992691,0.076173,-0.183108,-13.137169,16.162539,57.204430
1618379255.787967,19.000000,0.000000,4213.846191,4217.436035,4166.666504,4158.974121,4210.256348,0.000000,1.000000,15.000000,,,,0.000000,4.000000,4.000000,4.000000,4.000000,4.000000,100.000000,,,,,,,,,,,,,,,,,,,
1618379255.795784,20.000000,0.000000,4217.436035,4222.051270,4165.641113,4161.538574,4213.846191,0.000000,1.000000,15.000000,,,,0.000000,4.000000,4.000000,4.000000,4.000000,4.000000,100.000000,,,,,,,,10.000000,0.000000,0.338306,0.553955,0.333740,-0.683594,0.997574,0.086915,-0.165042,-13.199205,17.836130,57.824413
1618379255.803701,21.000000,0.000000,4219.487305,4229.230957,4170.256348,4180.512695,4210.256348,0.000000,1.000000,15.000000,,,,0.000000,4.000000,4.000000,4.000000,4.000000,4.000000,100.000000,,,,,,,,,,,,,,,,,,,
1618379255.811517,22.000000,0.000000,4215.897461,4222.051270,4172.307617,4180.000000,4205.641113,0.000000,1.000000,15.000000,,,,0.000000,4.000000,4.000000,4.000000,4.000000,4.000000,100.000000,,,,,,,,11.000000,0.000000,0.338065,0.553955,0.333984,-0.683594,1.001480,0.085939,-0.166506,-13.195223,19.402178,56.587940
1618379255.819334,23.000000,0.000000,4210.769043,4217.948730,4164.102539,4162.051270,4200.000000,0.000000,1.000000,15.000000,,,,0.000000,4.000000,4.000000,4.000000,4.000000,4.000000,100.000000,,,,,,,,,,,,,,,,,,,
1618379255.827150,24.000000,0.000000,4214.358887,4222.563965,4158.461426,4157.436035,4200.000000,0.000000,1.000000,15.000000,,,,0.000000,4.000000,4.000000,4.000000,4.000000,4.000000,100.000000,,,,,,,,12.000000,0.000000,0.338158,0.554199,0.333984,-0.683350,0.979019,0.072267,-0.168948,-13.191639,16.863806,57.329391
1618379255.834967,25.000000,0.000000,4217.948730,4222.051270,4161.025879,4171.282227,4209.230957,0.000000,1.000000,15.000000,,,,0.000000,4.000000,4.000000,4.000000,4.000000,4.000000,100.000000,,,,,,,,,,,,,,,,,,,
1618379255.842783,26.000000,0.000000,4208.717773,4215.384766,4163.589844,4165.641113,4207.692383,0.000000,1.000000,15.000000,,,,0.000000,4.000000,4.000000,4.000000,4.000000,4.000000,100.000000,,,,,,,,13.000000,0.000000,0.338158,0.554199,0.333984,-0.683350,0.986831,0.082521,-0.160647,-13.248228,14.639088,57.996696
1618379255.850600,27.000000,0.000000,4206.666504,4214.871582,4170.256348,4144.615234,4200.512695,0.000000,1.000000,15.000000,,,,0.000000,4.000000,4.000000,4.000000,4.000000,4.000000,100.000000,,,,,,,,,,,,,,,,,,,
1618379255.858417,28.000000,0.000000,4217.436035,4218.974121,4184.102539,4156.410156,4207.692383,0.000000,1.000000,15.000000,,,,0.000000,4.000000,4.000000,4.000000,4.000000,4.000000,100.000000,,,,,,,,14.000000,0.000000,0.338158,0.554199,0.333984,-0.683350,0.989761,0.083497,-0.167971,-13.179528,16.345392,56.683178
1618379255.866333,29.000000,0.000000,4216.922852,4220.000000,4187.179688,4182.563965,4211.794922,0.000000,1.000000,15.000000,,,,0.000000,4.000000,4.000000,4.000000,4.000000,4.000000,100.000000,,,,,,,,,,,,,,,,,,,
1618379255.874149,30.000000,0.000000,4212.307617,4228.717773,4180.000000,4173.333496,4205.641113,0.000000,1.000000,15.000000,,,,0.000000,4.000000,4.000000,4.000000,4.000000,4.000000,100.000000,,,,,,,,15.000000,0.000000,0.338317,0.553955,0.334229,-0.683350,0.995621,0.078614,-0.169436,-13.297144,14.172515,57.355289
1618379255.881965,31.000000,0.000000,4214.871582,4241.025879,4182.051270,4157.948730,4205.641113,0.000000,1.000000,15.000000,,,,0.000000,4.000000,4.000000,4.000000,4.000000,4.000000,100.000000,,,,,,,,,,,,,,,,,,,
1618379255.889881,32.000000,0.000000,4211.794922,4243.589844,4189.230957,4163.589844,4204.102539,0.000000,1.000000,15.000000,,,,0.000000,4.000000,4.000000,4.000000,4.000000,4.000000,100.000000,,,,,,,,16.000000,0.000000,0.337823,0.553955,0.334229,-0.683594,0.979995,0.084962,-0.173342,-13.343184,12.216926,57.840557
1618379255.897697,33.000000,0.000000,4203.077148,4235.897461,4187.179688,4164.615234,4196.922852,0.000000,1.000000,15.000000,,,,0.000000,4.000000,4.000000,4.000000,4.000000,4.000000,100.000000,,,,,,,,,,,,,,,,,,,
1618379255.905514,34.000000,0.000000,4200.512695,4223.077148,4181.025879,4162.051270,4194.871582,0.000000,1.000000,15.000000,,,,0.000000,4.000000,4.000000,4.000000,4.000000,4.000000,100.000000,,,,,,,,17.000000,0.000000,0.338223,0.553711,0.334229,-0.683594,0.979995,0.079103,-0.161624,-13.384618,14.464524,58.396931
1618379255.913330,35.000000,0.000000,4205.641113,4225.641113,4184.102539,4161.025879,4201.025879,0.000000,1.000000,15.000000,,,,0.000000,4.000000,4.000000,4.000000,4.000000,4.000000,100.000000,,,,,,,,,,,,,,,,,,,
1618379255.921146,36.000000,0.000000,4213.333496,4232.307617,4188.717773,4155.897461,4206.666504,0.000000,1.000000,15.000000,,,,0.000000,4.000000,4.000000,4.000000,4.000000,4.000000,100.000000,,,,,,,,18.000000,0.000000,0.338223,0.553711,0.334229,-0.683594,0.982437,0.072755,-0.169924,-13.362095,12.419918,58.897667
1618379255.929062,37.000000,0.000000,4213.846191,4221.025879,4182.051270,4160.000000,4204.615234,0.000000,1.000000,15.000000,,,,0.000000,4.000000,4.000000,4.000000,4.000000,4.000000,100.000000,,,,,,,,,,,,,,,,,,,
1618379255.936879,38.000000,0.000000,4212.307617,4219.487305,4174.358887,4164.102539,4204.102539,0.000000,1.000000,15.000000,,,,0.000000,4.000000,4.000000,4.000000,4.000000,4.000000,100.000000,,,,,,,,19.000000,0.000000,0.338223,0.553711,0.334229,-0.683594,0.998062,0.083009,-0.162600,-13.341823,10.579773,59.408146
1618379255.944695,39.000000,0.000000,4211.794922,4235.897461,4175.897461,4161.025879,4206.666504,0.000000,1.000000,15.000000,,,,0.000000,4.000000,4.000000,4.000000,4.000000,4.000000,100.000000,,,,,,,,,,,,,,,,,,,
1618379255.952511,40.000000,0.000000,4206.666504,4231.282227,4175.384766,4160.000000,4202.051270,0.000000,1.000000,15.000000,,,,0.000000,4.000000,4.000000,4.000000,4.000000,4.000000,100.000000,,,,,,,,20.000000,0.000000,0.338223,0.553711,0.334229,-0.683594,0.987808,0.083497,-0.161135,-13.383394,12.692010,57.833851
1618379255.960328,41.000000,0.000000,4207.692383,4213.846191,4169.743652,4156.410156,4201.025879,0.000000,1.000000,15.000000,,,,0.000000,4.000000,4.000000,4.000000,4.000000,4.000000,100.000000,,,,,,,,,,,,,,,,,,,
1618379255.968244,42.000000,0.000000,4214.871582,4221.538574,4163.077148,4150.256348,4210.769043,0.000000,1.000000,15.000000,,,,0.000000,4.000000,4.000000,4.000000,4.000000,4.000000,100.000000,,,,,,,,21.000000,0.000000,0.338223,0.553711,0.334229,-0.683594,0.982437,0.090333,-0.164065,-13.301177,10.824656,58.331081
1618379255.976061,43.000000,0.000000,4212.307617,4226.153809,4153.333496,4160.000000,4210.256348,0.000000,1.000000,15.000000,,,,0.000000,4.000000,4.000000,4.000000,4.000000,4.000000,100.000000,,,,,,,,,,,,,,,,,,,
1618379255.983878,44.000000,0.000000,4202.563965,4219.487305,4151.282227,4165.128418,4200.000000,0.000000,1.000000,15.000000,,,,0.000000,4.000000,4.000000,4.000000,4.000000,4.000000,100.000000,,,,,,,,22.000000,0.000000,0.338223,0.553711,0.334229,-0.683594,0.983902,0.076661,-0.174807,-13.346813,9.084221,58.898216
1618379255.991695,45.000000,0.000000,4204.102539,4225.641113,4157.436035,4147.692383,4200.512695,0.000000,1.000000,15.000000,,,,0.000000,4.000000,4.000000,4.000000,4.000000,4.000000,100.000000,,,,,,,,,,,,,,,,,,,
1618379255.999512,46.000000,0.000000,4205.641113,4222.563965,4158.461426,4142.051270,4198.461426,0.000000,1.000000,15.000000,,,,0.000000,4.000000,4.000000,4.000000,4.000000,4.000000,100.000000,,,,,,,,23.000000,0.000000,0.338223,0.553711,0.334229,-0.683594,0.980972,0.087404,-0.165042,-13.387885,7.697276,59.348824
1618379256.007328,47.000000,0.000000,4189.743652,4204.102539,4149.743652,4142.051270,4181.025879,0.000000,1.000000,15.000000,,,,0.000000,4.000000,4.000000,4.000000,4.000000,4.000000,100.000000,,,,,,,,,,,,,,,,,,,
1618379256.015145,48.000000,0.000000,4175.897461,4205.641113,4145.641113,4131.282227,4173.333496,0.000000,1.000000,15.000000,,,,0.000000,4.000000,4.000000,4.000000,4.000000,4.000000,100.000000,,,,,,,,24.000000,0.000000,0.337982,0.553711,0.334473,-0.683594,0.988785,0.086427,-0.171389,-13.484666,6.389210,59.933815
1618379256.022962,49.000000,0.000000,4179.487305,4222.563965,4154.871582,4134.358887,4185.128418,0.000000,1.000000,15.000000,,,,0.000000,4.000000,4.000000,4.000000,4.000000,4.000000,100.000000,,,,,,,,,,,,,,,,,,,
1618379256.030779,50.000000,0.000000,4194.871582,4229.743652,4168.205078,4155.384766,4202.051270,0.000000,1.000000,15.000000,,,,0.000000,4.000000,4.000000,4.000000,4.000000,4.000000,100.000000,,,,,,,,25.000000,0.000000,0.337982,0.553711,0.334473,-0.683594,1.003922,0.085451,-0.164065,-13.511952,5.271766,60.400494
1618379256.038694,51.000000,0.000000,4207.692383,4235.384766,4173.333496,4170.769043,4213.846191,0.000000,1.000000,15.000000,,,,0.000000,4.000000,4.000000,4.000000,4.000000,4.000000,100.000000,,,,,,,,,,,,,,,,,,,
1618379256.046510,52.000000,0.000000,4212.307617,4236.410156,4171.282227,4170.256348,4218.974121,0.000000,1.000000,15.000000,,,,0.000000,4.000000,4.000000,4.000000,4.000000,4.000000,100.000000,,,,,,,,26.000000,0.000000,0.337982,0.553711,0.334473,-0.683594,0.985367,0.093263,-0.165530,-13.536510,4.086620,60.700874
1618379256.054326,53.000000,0.000000,4213.846191,4228.717773,4172.307617,4156.922852,4218.461426,0.000000,1.000000,15.000000,,,,0.000000,4.000000,4.000000,4.000000,4.000000,4.000000,100.000000,,,,,,,,,,,,,,,,,,,
1618379256.062242,54.000000,0.000000,4212.820313,4234.358887,4172.820313,4154.871582,4210.256348,0.000000,1.000000,15.000000,,,,0.000000,4.000000,4.000000,4.000000,4.000000,4.000000,100.000000,,,,,,,,27.000000,0.000000,0.338223,0.553711,0.334229,-0.683594,0.984878,0.090822,-0.172854,-13.618428,3.139620,61.150661
1618379256.070058,55.000000,0.000000,4214.871582,4241.025879,4174.358887,4180.512695,4213.846191,0.000000,1.000000,15.000000,,,,0.000000,4.000000,4.000000,4.000000,4.000000,4.000000,100.000000,,,,,,,,,,,,,,,,,,,
1618379256.077874,56.000000,0.000000,4220.512695,4231.282227,4174.871582,4189.743652,4232.820313,0.000000,1.000000,15.000000,,,,0.000000,4.000000,4.000000,4.000000,4.000000,4.000000,100.000000,,,,,,,,28.000000,0.000000,0.338223,0.553711,0.334229,-0.683594,0.981949,0.082033,-0.166506,-13.452892,2.227504,61.376022
1618379256.085790,57.000000,0.000000,4222.051270,4231.282227,4174.358887,4174.358887,4234.871582,0.000000,1.000000,15.000000,,,,0.000000,4.000000,4.000000,4.000000,4.000000,4.000000,100.000000,,,,,,,,,,,,,,,,,,,
1618379256.093607,58.000000,0.000000,4212.820313,4238.974121,4179.487305,4177.436035,4214.871582,0.000000,1.000000,15.000000,,,,0.000000,4.000000,4.000000,4.000000,4.000000,4.000000,100.000000,,,,,,,,29.000000,0.000000,0.338223,0.553711,0.334229,-0.683594,0.990738,0.077638,-0.176761,-13.423541,5.354414,59.724575
1618379256.101424,59.000000,0.000000,4207.179688,4224.615234,4178.974121,4177.948730,4200.512695,0.000000,1.000000,15.000000,,,,0.000000,4.000000,4.000000,4.000000,4.000000,4.000000,100.000000,,,,,,,,,,,,,,,,,,,
1618379256.109241,60.000000,0.000000,4210.769043,4207.179688,4165.641113,4162.563965,4202.051270,0.000000,1.000000,15.000000,,,,0.000000,4.000000,4.000000,4.000000,4.000000,4.000000,100.000000,,,,,,,,30.000000,0.000000,0.337982,0.553711,0.334473,-0.683594,0.990738,0.080568,-0.165530,-13.456941,4.280634,58.417713
1618379256.117057,61.000000,0.000000,4210.256348,4215.384766,4161.025879,4153.333496,4207.179688,0.000000,1.000000,15.000000,,,,0.000000,4.000000,4.000000,4.000000,4.000000,4.000000,100.000000,,,,,,,,,,,,,,,,,,,
1618379256.124874,62.000000,0.000000,4206.153809,4232.307617,4171.282227,4149.743652,4210.256348,0.000000,1.000000,15.000000,,,,0.000000,4.000000,4.000000,4.000000,4.000000,4.000000,100.000000,,,,,,,,31.000000,0.000000,0.337982,0.553711,0.334473,-0.683594,1.007828,0.077638,-0.171878,-13.487000,3.314233,59.155632
1618379256.132691,63.000000,0.000000,4204.615234,4231.282227,4168.717773,4155.384766,4210.256348,0.000000,1.000000,15.000000,,,,0.000000,4.000000,4.000000,4.000000,4.000000,4.000000,100.000000,1.000000,100.000000,4.000000,4.000000,4.000000,4.000000,4.000000,,,,,,,,,,,,
1618379256.140508,64.000000,0.000000,4208.717773,4222.051270,4155.384766,4169.743652,4209.743652,450.000000,1.000000,15.000000,,,,0.000000,4.000000,4.000000,4.000000,4.000000,4.000000,100.000000,,,,,,,,32.000000,0.000000,0.337740,0.553711,0.334717,-0.683594,0.982925,0.088869,-0.173831,-13.514053,2.265025,59.700130
1618379256.148325,65.000000,0.000000,4216.410156,4231.794922,4164.102539,4169.230957,4214.871582,450.000000,1.000000,15.000000,,,,0.000000,4.000000,4.000000,4.000000,4.000000,4.000000,100.000000,,,,,,,,,,,,,,,,,,,
1618379256.156241,66.000000,0.000000,4220.512695,4249.230957,4179.487305,4161.025879,4217.948730,16309.000000,1.000000,15.000000,,,,0.000000,4.000000,4.000000,4.000000,4.000000,4.000000,100.000000,,,,,,,,33.000000,0.000000,0.337982,0.553711,0.334473,-0.683594,0.990738,0.080568,-0.165530,-13.538402,5.447999,60.070545
1618379256.164058,67.000000,0.000000,4215.897461,4237.948730,4178.974121,4169.743652,4217.948730,450.000000,1.000000,15.000000,,,,0.000000,4.000000,4.000000,4.000000,4.000000,4.000000,100.000000,,,,,,,,,,,,,,,,,,,
1618379256.171875,68.000000,0.000000,4212.820313,4222.563965,4175.384766,4174.358887,4214.871582,16097.000000,1.000000,15.000000,,,,0.000000,4.000000,4.000000,4.000000,4.000000,4.000000,100.000000,,,,,,,,34.000000,0.000000,0.337740,0.553711,0.334717,-0.683594,0.982925,0.088869,-0.173831,-13.560315,4.185414,60.523552
1618379256.179692,69.000000,0.000000,4213.846191,4235.384766,4180.512695,4161.538574,4210.256348,450.000000,1.000000,15.000000,,,,0.000000,4.000000,4.000000,4.000000,4.000000,4.000000,100.000000,,,,,,,,,,,,,,,,,,,
1618379256.187508,70.000000,0.000000,4209.743652,4233.333496,4181.025879,4154.358887,4210.256348,16372.000000,1.000000,15.000000,,,,0.000000,4.000000,4.000000,4.000000,4.000000,4.000000,100.000000,,,,,,,,35.000000,0.000000,0.338076,0.553955,0.334473,-0.683350,0.992691,0.078126,-0.169924,-13.639853,3.168719,60.871441
1618379256.195325,71.000000,0.000000,4208.205078,4217.948730,4176.922852,4170.769043,4215.384766,450.000000,1.000000,15.000000,,,,0.000000,4.000000,4.000000,4.000000,4.000000,4.000000,100.000000,,,,,,,,,,,,,,,,,,,
1618379256.203142,72.000000,0.000000,4208.717773,4226.666504,4177.436035,4181.538574,4208.717773,450.000000,1.000000,15.000000,,,,0.000000,4.000000,4.000000,4.000000,4.000000,4.000000,100.000000,,,,,,,,36.000000,0.000000,0.338076,0.553955,0.334473,-0.683350,0.991714,0.091798,-0.171389,-13.591805,6.022062,59.449894
1618379256.210959,73.000000,0.000000,4204.102539,4228.205078,4173.846191,4163.077148,4196.410156,16186.000000,1.000000,15.000000,,,,0.000000,4.000000,4.000000,4.000000,4.000000,4.000000,100.000000,,,,,,,,,,,,,,,,,,,
1618379256.218776,74.000000,0.000000,4205.641113,4210.769043,4165.641113,4150.769043,4203.077148,450.000000,1.000000,15.000000,,,,0.000000,4.000000,4.000000,4.000000,4.000000,4.000000,100.000000,,,,,,,,37.000000,0.000000,0.338076,0.553955,0.334473,-0.683350,0.990250,0.070314,-0.163088,-13.668193,4.941332,59.905148
1618379256.226592,75.000000,0.000000,4208.205078,4209.230957,4164.615234,4160.512695,4205.641113,16310.000000,1.000000,15.000000,,,,0.000000,4.000000,4.000000,4.000000,4.000000,4.000000,100.000000,,,,,,,,,,,,,,,,,,,
1618379256.234509,76.000000,0.000000,4202.563965,4216.922852,4169.230957,4165.128418,4193.333496,450.000000,1.000000,15.000000,,,,0.000000,4.000000,4.000000,4.000000,4.000000,4.000000,100.000000,,,,,,,,38.000000,0.000000,0.338076,0.553955,0.334473,-0.683350,0.981460,0.087892,-0.174807,-13.736942,7.677229,58.161526
1618379256.242325,77.000000,0.000000,4206.666504,4220.000000,4176.922852,4165.128418,4198.974121,450.000000,1.000000,15.000000,,,,0.000000,4.000000,4.000000,4.000000,4.000000,4.000000,100.000000,,,,,,,,,,,,,,,,,,,
1618379256.250141,78.000000,0.000000,4216.410156,4221.538574,4181.025879,4169.743652,4216.410156,450.000000,1.000000,15.000000,,,,0.000000,4.000000,4.000000,4.000000,4.000000,4.000000,100.000000,,,,,,,,39.000000,0.000000,0.338234,0.553711,0.334717,-0.683350,0.974136,0.083009,-0.168460,-13.798818,6.490798,58.745617
1618379256.257958,79.000000,0.000000,4212.820313,4213.846191,4173.333496,4163.077148,4211.282227,16310.000000,1.000000,15.000000,,,,0.000000,4.000000,4.000000,4.000000,4.000000,4.000000,100.000000,,,,,,,,,,,,,,,,,,,
1618379256.265774,80.000000,0.000000,4206.153809,4207.179688,4161.538574,4148.717773,4197.948730,450.000000,1.000000,15.000000,,,,0.000000,4.000000,4.000000,4.000000,4.000000,4.000000,100.000000,,,,,,,,40.000000,0.000000,0.338234,0.553711,0.334717,-0.683350,0.990738,0.087892,-0.161624,-13.675058,9.191380,57.357208
1618379256.273691,81.000000,0.000000,4213.333496,4214.871582,4161.025879,4153.333496,4204.102539,450.000000,1.000000,15.000000,,,,0.000000,4.000000,4.000000,4.000000,4.000000,4.000000,100.000000,,,,,,,,,,,,,,,,,,,
1618379256.281507,82.000000,0.000000,4221.025879,4226.153809,4166.153809,4167.179688,4216.922852,450.000000,1.000000,15.000000,,,,0.000000,4.000000,4.000000,4.000000,4.000000,4.000000,100.000000,,,,,,,,41.000000,0.000000,0.337740,0.553711,0.334717,-0.683594,0.995132,0.079591,-0.167483,-13.683306,7.733903,56.167454
1618379256.289324,83.000000,0.000000,4222.051270,4229.230957,4167.179688,4162.051270,4215.384766,16310.000000,1.000000,15.000000,,,,0.000000,4.000000,4.000000,4.000000,4.000000,4.000000,100.000000,,,,,,,,,,,,,,,,,,,
1618379256.297141,84.000000,0.000000,4223.589844,4227.692383,4169.743652,4153.333496,4209.743652,450.000000,1.000000,15.000000,,,,0.000000,4.000000,4.000000,4.000000,4.000000,4.000000,100.000000,,,,,,,,42.000000,0.000000,0.337740,0.553711,0.334717,-0.683594,0.997574,0.097658,-0.172366,-13.690728,6.422174,56.891136
1618379256.304958,85.000000,0.000000,4224.615234,4225.641113,4174.871582,4157.948730,4214.358887,450.000000,1.000000,15.000000,,,,0.000000,4.000000,4.000000,4.000000,4.000000,4.000000,100.000000,,,,,,,,,,,,,,,,,,,
1618379256.312774,86.000000,0.000000,4230.769043,4227.179688,4180.512695,4175.897461,4222.051270,450.000000,1.000000,15.000000,,,,0.000000,4.000000,4.000000,4.000000,4.000000,4.000000,100.000000,,,,,,,,43.000000,0.000000,0.337740,0.553711,0.334717,-0.683594,1.000015,0.087404,-0.175784,-13.637594,8.950171,55.747993
1618379256.320591,87.000000,0.000000,4238.461426,4231.794922,4182.051270,4179.487305,4226.153809,16310.000000,1.000000,15.000000,,,,0.000000,4.000000,4.000000,4.000000,4.000000,4.000000,100.000000,,,,,,,,,,,,,,,,,,,
1618379256.328408,88.000000,0.000000,4236.410156,4240.512695,4181.538574,4159.487305,4230.256348,450.000000,1.000000,15.000000,,,,0.000000,4.000000,4.000000,4.000000,4.000000,4.000000,100.000000,,,,,,,,44.000000,0.000000,0.337740,0.553711,0.334717,-0.683594,0.992691,0.080079,-0.169924,-13.649588,7.516816,56.573437
1618379256.336225,89.000000,0.000000,4232.820313,4246.153809,4186.153809,4160.512695,4233.846191,450.000000,1.000000,15.000000,,,,0.000000,4.000000,4.000000,4.000000,4.000000,4.000000,100.000000,,,,,,,,,,,,,,,,,,,
1618379256.344141,90.000000,0.000000,4234.871582,4235.897461,4189.230957,4185.641113,4233.846191,450.000000,1.000000,15.000000,,,,0.000000,4.000000,4.000000,4.000000,4.000000,4.000000,100.000000,,,,,,,,45.000000,0.000000,0.337982,0.553711,0.334473,-0.683594,0.980972,0.083009,-0.159670,-13.660382,9.995164,57.256523
1618379256.351958,91.000000,0.000000,4234.358887,4227.179688,4186.153809,4190.769043,4234.871582,16310.000000,1.000000,15.000000,,,,0.000000,4.000000,4.000000,4.000000,4.000000,4.000000,100.000000,,,,,,,,,,,,,,,,,,,
1618379256.359774,92.000000,0.000000,4231.282227,4231.282227,4185.641113,4171.794922,4236.922852,450.000000,1.000000,15.000000,,,,0.000000,4.000000,4.000000,4.000000,4.000000,4.000000,100.000000,,,,,,,,46.000000,0.000000,0.337488,0.553711,0.334473,-0.683838,0.993179,0.095216,-0.163088,-13.729913,12.345308,57.751667
1618379256.367591,93.000000,0.000000,4232.820313,4228.717773,4186.153809,4164.102539,4231.794922,450.000000,1.000000,15.000000,,,,0.000000,4.000000,4.000000,4.000000,4.000000,4.000000,100.000000,,,,,,,,,,,,,,,,,,,
1618379256.375408,94.000000,0.000000,4240.512695,4232.820313,4185.128418,4182.563965,4236.922852,450.000000,1.000000,15.000000,,,,0.000000,4.000000,4.000000,4.000000,4.000000,4.000000,100.000000,,,,,,,,47.000000,0.000000,0.337982,0.553711,0.334473,-0.683594,0.992691,0.084474,-0.163088,-13.613045,10.452808,58.376743
1618379256.383224,95.000000,0.000000,4241.025879,4237.436035,4181.025879,4193.846191,4249.230957,16310.000000,1.000000,15.000000,,,,0.000000,4.000000,4.000000,4.000000,4.000000,4.000000,100.000000,,,,,,,,,,,,,,,,,,,
1618379256.391041,96.000000,0.000000,4232.307617,4224.615234,4170.256348,4171.794922,4249.743652,450.000000,1.000000,15.000000,,,,0.000000,4.000000,4.000000,4.000000,4.000000,4.000000,100.000000,,,,,,,,48.000000,0.000000,0.337982,0.553711,0.334473,-0.683594,0.995621,0.087404,-0.173342,-13.567678,12.637557,57.085037
1618379256.398857,97.000000,0.000000,4234.358887,4227.179688,4164.102539,4163.077148,4249.230957,450.000000,1.000000,15.000000,,,,0.000000,4.000000,4.000000,4.000000,4.000000,4.000000,100.000000,,,,,,,,,,,,,,,,,,,
1618379256.406774,98.000000,0.000000,4244.615234,4245.641113,4176.410156,4191.282227,4253.846191,450.000000,1.000000,15.000000,,,,0.000000,4.000000,4.000000,4.000000,4.000000,4.000000,100.000000,,,,,,,,49.000000,0.000000,0.337982,0.553711,0.334473,-0.683594,0.994644,0.092775,-0.168460,-13.706294,14.663647,55.802872
1618379256.414591,99.000000,0.000000,4241.538574,4238.974121,4185.641113,4196.922852,4250.256348,16310.000000,1.000000,15.000000,,,,0.000000,4.000000,4.000000,4.000000,4.000000,4.000000,100.000000,,,,,,,,,,,,,,,,,,,
1618379256.422407,100.000000,0.000000,4229.743652,4226.666504,4177.948730,4171.794922,4239.487305,450.000000,1.000000,15.000000,,,,0.000000,4.000000,4.000000,4.000000,4.000000,4.000000,100.000000,,,,,,,,50.000000,0.000000,0.337982,0.553711,0.334473,-0.683594,0.990738,0.089845,-0.171878,-13.711418,12.658944,56.742458
1618379256.430224,101.000000,0.000000,4226.666504,4231.282227,4168.205078,4159.487305,4229.230957,450.000000,1.000000,15.000000,,,,0.000000,4.000000,4.000000,4.000000,4.000000,4.000000,100.000000,,,,,,,,,,,,,,,,,,,
1618379256.438041,102.000000,0.000000,4228.717773,4227.179688,4162.051270,4162.051270,4225.128418,450.000000,1.000000,15.000000,,,,0.000000,4.000000,4.000000,4.000000,4.000000,4.000000,100.000000,,,,,,,,51.000000,0.000000,0.337982,0.553711,0.334473,-0.683594,0.986831,0.098634,-0.170413,-13.775846,10.854711,57.528275
1618379256.445858,103.000000,0.000000,4221.538574,4221.538574,4165.641113,4165.128418,4227.692383,16310.000000,1.000000,15.000000,,,,0.000000,4.000000,4.000000,4.000000,4.000000,4.000000,100.000000,,,,,,,,,,,,,,,,,,,
1618379256.453675,104.000000,0.000000,4211.794922,4228.205078,4175.897461,4165.128418,4229.230957,450.000000,1.000000,15.000000,,,,0.000000,4.000000,4.000000,4.000000,4.000000,4.000000,100.000000,,,,,,,,52.000000,0.000000,0.338223,0.553711,0.334229,-0.683594,0.996597,0.083009,-0.172854,-13.953461,12.939454,56.381229
1618379256.461491,105.000000,0.000000,4222.563965,4227.692383,4178.974121,4166.153809,4230.256348,450.000000,1.000000,15.000000,,,,0.000000,4.000000,4.000000,4.000000,4.000000,4.000000,100.000000,,,,,,,,,,,,,,,,,,,
1618379256.469308,106.000000,0.000000,4236.922852,4225.128418,4178.974121,4172.820313,4233.846191,450.000000,1.000000,15.000000,,,,0.000000,4.000000,4.000000,4.000000,4.000000,4.000000,100.000000,,,,,,,,53.000000,0.000000,0.338223,0.553711,0.334229,-0.683594,0.992203,0.086427,-0.177737,-13.874052,11.107171,57.262981
1618379256.477225,107.000000,0.000000,4225.641113,4230.769043,4176.922852,4178.974121,4231.282227,16310.000000,1.000000,15.000000,,,,0.000000,4.000000,4.000000,4.000000,4.000000,4.000000,100.000000,,,,,,,,,,,,,,,,,,,
1618379256.485042,108.000000,0.000000,4212.307617,4231.282227,4170.256348,4176.922852,4222.563965,450.000000,1.000000,15.000000,,,,0.000000,4.000000,4.000000,4.000000,4.000000,4.000000,100.000000,,,,,,,,54.000000,0.000000,0.337823,0.553955,0.334229,-0.683594,0.997086,0.083009,-0.161624,-13.802585,13.106853,55.963020
1618379256.492858,109.000000,0.000000,4221.538574,4224.102539,4165.128418,4175.897461,4222.563965,450.000000,1.000000,15.000000,,,,0.000000,4.000000,4.000000,4.000000,4.000000,4.000000,100.000000,,,,,,,,,,,,,,,,,,,
1618379256.500675,110.000000,0.000000,4233.846191,4226.153809,4171.794922,4184.615234,4238.974121,450.000000,1.000000,15.000000,,,,0.000000,4.000000,4.000000,4.000000,4.000000,4.000000,100.000000,,,,,,,,55.000000,0.000000,0.338317,0.553955,0.334229,-0.683350,0.991714,0.095216,-0.170413,-13.857895,15.026197,56.766960
1618379256.508492,111.000000,0.000000,4232.307617,4225.128418,4177.436035,4182.563965,4249.230957,16310.000000,1.000000,15.000000,,,,0.000000,4.000000,4.000000,4.000000,4.000000,4.000000,100.000000,,,,,,,,,,,,,,,,,,,
1618379256.516309,112.000000,0.000000,4230.256348,4209.230957,4168.205078,4173.333496,4235.384766,450.000000,1.000000,15.000000,,,,0.000000,4.000000,4.000000,4.000000,4.000000,4.000000,100.000000,,,,,,,,56.000000,0.000000,0.338317,0.553955,0.334229,-0.683350,0.998550,0.075196,-0.179690,-13.728229,16.693792,57.370880
1618379256.524126,113.000000,0.000000,4227.692383,4208.205078,4156.410156,4163.077148,4215.897461,450.000000,1.000000,15.000000,,,,0.000000,4.000000,4.000000,4.000000,4.000000,4.000000,100.000000,,,,,,,,,,,,,,,,,,,
1618379256.531942,114.000000,0.000000,4213.846191,4216.410156,4149.743652,4142.051270,4209.743652,450.000000,1.000000,15.000000,,,,0.000000,4.000000,4.000000,4.000000,4.000000,4.000000,100.000000,,,,,,,,57.000000,0.000000,0.338317,0.553955,0.334229,-0.683350,0.999039,0.095216,-0.169436,-13.731159,14.366444,57.974220
1618379256.539759,115.000000,0.000000,4207.692383,4203.077148,4151.794922,4142.563965,4211.282227,16310.000000,1.000000,15.000000,,,,0.000000,4.000000,4.000000,4.000000,4.000000,4.000000,100.000000,,,,,,,,,,,,,,,,,,,
1618379256.547576,116.000000,0.000000,4225.128418,4199.487305,4162.051270,4174.871582,4218.974121,450.000000,1.000000,15.000000,,,,0.000000,4.000000,4.000000,4.000000,4.000000,4.000000,100.000000,,,,,,,,58.000000,0.000000,0.337675,0.554199,0.334473,-0.683350,0.987320,0.086915,-0.169924,-13.673982,16.040197,56.722767
1618379256.555493,117.000000,0.000000,4242.051270,4228.717773,4168.205078,4181.025879,4232.820313,450.000000,1.000000,15.000000,,,,0.000000,4.000000,4.000000,4.000000,4.000000,4.000000,100.000000,,,,,,,,,,,,,,,,,,,
1618379256.563309,118.000000,0.000000,4234.871582,4229.743652,4164.615234,4154.358887,4232.820313,450.000000,1.000000,15.000000,,,,0.000000,4.000000,4.000000,4.000000,4.000000,4.000000,100.000000,,,,,,,,59.000000,0.000000,0.337675,0.554199,0.334473,-0.683350,0.992691,0.094240,-0.165042,-13.562706,17.726023,55.476826
1618379256.571126,119.000000,0.000000,4218.974121,4202.563965,4159.487305,4148.717773,4222.051270,16310.000000,1.000000,15.000000,,,,0.000000,4.000000,4.000000,4.000000,4.000000,4.000000,100.000000,,,,,,,,,,,,,,,,,,,
1618379256.578943,120.000000,0.000000,4220.512695,4202.051270,4160.512695,4167.179688,4224.102539,450.000000,1.000000,15.000000,,,,0.000000,4.000000,4.000000,4.000000,4.000000,4.000000,100.000000,,,,,,,,60.000000,0.000000,0.337927,0.554199,0.334717,-0.683105,0.988296,0.078614,-0.162112,-13.522373,15.355268,56.449020
1618379256.586760,121.000000,0.000000,4227.179688,4206.666504,4162.051270,4171.282227,4224.102539,450.000000,1.000000,15.000000,,,,0.000000,4.000000,4.000000,4.000000,4.000000,4.000000,100.000000,,,,,,,,,,,,,,,,,,,
1618379256.594577,122.000000,0.000000,4222.051270,4201.025879,4165.128418,4155.384766,4214.871582,450.000000,1.000000,15.000000,,,,0.000000,4.000000,4.000000,4.000000,4.000000,4.000000,100.000000,,,,,,,,61.000000,0.000000,0.337927,0.554199,0.334717,-0.683105,0.982925,0.081056,-0.161135,-13.545889,13.221587,57.144547
1618379256.602393,123.000000,0.000000,4217.948730,4211.794922,4173.846191,4147.692383,4221.025879,16310.000000,1.000000,15.000000,,,,0.000000,4.000000,4.000000,4.000000,4.000000,4.000000,100.000000,,,,,,,,,,,,,,,,,,,
1618379256.610210,124.000000,0.000000,4226.153809,4226.666504,4178.974121,4165.641113,4236.922852,450.000000,1.000000,15.000000,,,,0.000000,4.000000,4.000000,4.000000,4.000000,4.000000,100.000000,,,,,,,,62.000000,0.000000,0.337927,0.554199,0.334717,-0.683105,0.999527,0.086915,-0.166506,-13.447423,11.241459,57.890152
1618379256.618027,125.000000,0.000000,4226.666504,4223.077148,4171.282227,4171.794922,4227.179688,450.000000,1.000000,15.000000,,,,0.000000,4.000000,4.000000,4.000000,4.000000,4.000000,100.000000,,,,,,,,,,,,,,,,,,,
1618379256.625944,126.000000,0.000000,4215.897461,4210.256348,4164.615234,4152.307617,4210.256348,450.000000,1.000000,15.000000,,,,0.000000,4.000000,4.000000,4.000000,4.000000,4.000000,100.000000,,,,,,,,63.000000,0.000000,0.337685,0.554199,0.334961,-0.683105,0.988785,0.080079,-0.170413,-13.358804,13.466974,58.561195
1618379256.633761,127.000000,0.000000,4220.512695,4207.692383,4174.871582,4157.948730,4219.487305,233.000000,1.000000,15.000000,,,,0.000000,4.000000,4.000000,4.000000,4.000000,4.000000,100.000000,1.000000,100.000000,4.000000,4.000000,4.000000,4.000000,4.000000,,,,,,,,,,,,
1618379256.641577,0.000000,0.000000,4224.615234,4214.358887,4180.512695,4174.358887,4226.666504,450.000000,1.000000,15.000000,,,,0.000000,4.000000,4.000000,4.000000,4.000000,4.000000,100.000000,,,,,,,,0.000000,0.000000,0.337927,0.554199,0.334717,-0.683105,0.982925,0.081056,-0.161135,-13.458492,15.350307,57.191227
1618379256.649394,1.000000,0.000000,4215.897461,4214.358887,4167.179688,4157.436035,4213.846191,450.000000,1.000000,15.000000,,,,0.000000,4.000000,4.000000,4.000000,4.000000,4.000000,100.000000,,,,,,,,,,,,,,,,,,,
1618379256.657211,2.000000,0.000000,4222.051270,4208.205078,4163.589844,4155.384766,4213.333496,16251.000000,1.000000,15.000000,,,,0.000000,4.000000,4.000000,4.000000,4.000000,4.000000,100.000000,,,,,,,,1.000000,0.000000,0.337685,0.554199,0.334961,-0.683105,0.988785,0.080079,-0.170413,-13.368766,17.164936,57.932163
1618379256.665028,3.000000,0.000000,4232.307617,4207.692383,4172.307617,4173.846191,4225.128418,450.000000,1.000000,15.000000,,,,0.000000,4.000000,4.000000,4.000000,4.000000,4.000000,100.000000,,,,,,,,,,,,,,,,,,,
1618379256.672844,4.000000,0.000000,4229.230957,4208.205078,4171.282227,4175.897461,4225.641113,16164.000000,1.000000,15.000000,,,,0.000000,4.000000,4.000000,4.000000,4.000000,4.000000,100.000000,,,,,,,,2.000000,0.000000,0.337685,0.554199,0.334961,-0.683105,0.994644,0.093263,-0.166995,-13.407642,18.738287,58.539192
1618379256.680661,5.000000,0.000000,4230.769043,4210.769043,4162.051270,4180.512695,4221.025879,450.000000,1.000000,15.000000,,,,0.000000,4.000000,4.000000,4.000000,4.000000,4.000000,100.000000,,,,,,,,,,,,,,,,,,,
1618379256.688578,6.000000,0.000000,4233.333496,4213.333496,4156.922852,4182.563965,4218.461426,16250.000000,1.000000,15.000000,,,,0.000000,4.000000,4.000000,4.000000,4.000000,4.000000,100.000000,,,,,,,,3.000000,0.000000,0.337685,0.554199,0.334961,-0.683105,0.998550,0.089357,-0.173342,-13.323001,19.974857,57.171425
1618379256.696395,7.000000,0.000000,4224.102539,4212.820313,4157.436035,4166.666504,4217.436035,450.000000,1.000000,15.000000,,,,0.000000,4.000000,4.000000,4.000000,4.000000,4.000000,100.000000,,,,,,,,,,,,,,,,,,,
1618379256.704212,8.000000,0.000000,4221.538574,4212.820313,4162.051270,4160.512695,4221.538574,450.000000,1.000000,15.000000,,,,0.000000,4.000000,4.000000,4.000000,4.000000,4.000000,100.000000,,,,,,,,4.000000,0.000000,0.337685,0.554199,0.334961,-0.683105,0.985367,0.077150,-0.156741,-13.366454,17.498850,57.974159
1618379256.712028,9.000000,0.000000,4221.025879,4211.282227,4165.128418,4162.563965,4223.077148,16203.000000,1.000000,15.000000,,,,0.000000,4.000000,4.000000,4.000000,4.000000,4.000000,100.000000,,,,,,,,,,,,,,,,,,,
1618379256.719845,10.000000,0.000000,4214.871582,4215.384766,4168.205078,4154.871582,4212.307617,450.000000,1.000000,15.000000,,,,0.000000,4.000000,4.000000,4.000000,4.000000,4.000000,100.000000,,,,,,,,5.000000,0.000000,0.337685,0.554199,0.334961,-0.683105,0.989273,0.078614,-0.163088,-13.345747,15.090995,58.517170
1618379256.727662,11.000000,0.000000,4214.358887,4214.871582,4172.820313,4157.436035,4201.025879,16247.000000,1.000000,15.000000,,,,0.000000,4.000000,4.000000,4.000000,4.000000,4.000000,100.000000,,,,,,,,,,,,,,,,,,,
1618379256.735479,12.000000,0.000000,4208.717773,4197.436035,4165.128418,4149.743652,4192.307617,450.000000,1.000000,15.000000,,,,0.000000,4.000000,4.000000,4.000000,4.000000,4.000000,100.000000,,,,,,,,6.000000,0.000000,0.337927,0.554199,0.334717,-0.683105,0.994156,0.091310,-0.156252,-13.386926,12.983742,59.065697
1618379256.743295,13.000000,0.000000,4190.769043,4195.897461,4153.333496,4120.512695,4181.538574,450.000000,1.000000,15.000000,,,,0.000000,4.000000,4.000000,4.000000,4.000000,4.000000,100.000000,,,,,,,,,,,,,,,,,,,
1618379256.751112,14.000000,0.000000,4189.230957,4228.717773,4165.128418,4128.717773,4183.589844,450.000000,1.000000,15.000000,,,,0.000000,4.000000,4.000000,4.000000,4.000000,4.000000,100.000000,,,,,,,,7.000000,0.000000,0.338179,0.554199,0.334961,-0.682861,0.991226,0.085939,-0.155764,-13.304356,11.147030,59.619186
1618379256.759029,15.000000,0.000000,4214.871582,4243.589844,4183.077148,4173.846191,4205.641113,16247.000000,1.000000,15.000000,,,,0.000000,4.000000,4.000000,4.000000,4.000000,4.000000,100.000000,,,,,,,,,,,,,,,,,,,
1618379256.766846,16.000000,0.000000,4235.384766,4230.256348,4184.615234,4191.794922,4225.641113,0.000000,1.000000,15.000000,,,,0.000000,4.000000,4.000000,4.000000,4.000000,4.000000,100.000000,,,,,,,,8.000000,0.000000,0.337927,0.554199,0.334717,-0.683105,0.978531,0.077638,-0.171389,-13.289858,9.493988,60.057514
1618379256.774663,17.000000,0.000000,4237.436035,4235.384766,4180.512695,4185.128418,4231.282227,0.000000,1.000000,15.000000,,,,0.000000,4.000000,4.000000,4.000000,4.000000,4.000000,100.000000,,,,,,,,,,,,,,,,,,,
1618379256.782480,18.000000,0.000000,4232.820313,4246.153809,4184.615234,4185.641113,4228.717773,0.000000,1.000000,15.000000,,,,0.000000,4.000000,4.000000,4.000000,4.000000,4.000000,100.000000,,,,,,,,9.000000,0.000000,0.337927,0.554199,0.334717,-0.683105,0.990738,0.088380,-0.165042,-13.276811,8.066067,60.511822
1618379256.790297,19.000000,0.000000,4232.307617,4241.025879,4190.769043,4182.051270,4223.589844,0.000000,1.000000,15.000000,,,,0.000000,4.000000,4.000000,4.000000,4.000000,4.000000,100.000000,,,,,,,,,,,,,,,,,,,
1618379256.798114,20.000000,0.000000,4235.897461,4241.025879,4189.743652,4181.025879,4225.128418,0.000000,1.000000,15.000000,,,,0.000000,4.000000,4.000000,4.000000,4.000000,4.000000,100.000000,,,,,,,,10.000000,0.000000,0.337927,0.554199,0.334717,-0.683105,0.999039,0.078614,-0.161624,-13.205252,10.489490,58.767345
1618379256.805931,21.000000,0.000000,4241.025879,4243.589844,4188.717773,4186.153809,4235.897461,0.000000,1.000000,15.000000,,,,0.000000,4.000000,4.000000,4.000000,4.000000,4.000000,100.000000,,,,,,,,,,,,,,,,,,,
1618379256.813748,22.000000,0.000000,4241.025879,4230.769043,4187.692383,4178.461426,4240.000000,0.000000,1.000000,15.000000,,,,0.000000,4.000000,4.000000,4.000000,4.000000,4.000000,100.000000,,,,,,,,11.000000,0.000000,0.337834,0.553955,0.334717,-0.683350,0.997086,0.093263,-0.162112,-13.320295,8.842387,59.290855
1618379256.821565,23.000000,0.000000,4226.153809,4216.410156,4180.512695,4172.820313,4229.230957,0.000000,1.000000,15.000000,,,,0.000000,4.000000,4.000000,4.000000,4.000000,4.000000,100.000000,,,,,,,,,,,,,,,,,,,
1618379256.829382,24.000000,0.000000,4213.846191,4220.512695,4171.282227,4181.538574,4217.948730,0.000000,1.000000,15.000000,,,,0.000000,4.000000,4.000000,4.000000,4.000000,4.000000,100.000000,,,,,,,,12.000000,0.000000,0.337340,0.553955,0.334717,-0.683594,0.973159,0.092287,-0.166018,-13.364019,11.128363,57.907738
1618379256.837199,25.000000,0.000000,4209.743652,4227.179688,4165.128418,4180.000000,4207.692383,0.000000,1.000000,15.000000,,,,0.000000,4.000000,4.000000,4.000000,4.000000,4.000000,100.000000,,,,,,,,,,,,,,,,,,,
1618379256.845116,26.000000,0.000000,4209.230957,4229.230957,4165.641113,4171.282227,4202.051270,0.000000,1.000000,15.000000,,,,0.000000,4.000000,4.000000,4.000000,4.000000,4.000000,100.000000,,,,,,,,13.000000,0.000000,0.337498,0.553711,0.334961,-0.683594,0.999039,0.090822,-0.167483,-13.582817,9.537004,56.543301
1618379256.852933,27.000000,0.000000,4214.871582,4234.358887,4171.282227,4174.358887,4214.871582,0.000000,1.000000,15.000000,,,,0.000000,4.000000,4.000000,4.000000,4.000000,4.000000,100.000000,,,,,,,,,,,,,,,,,,,
1618379256.860750,28.000000,0.000000,4217.948730,4235.384766,4167.692383,4168.717773,4226.666504,0.000000,1.000000,15.000000,,,,0.000000,4.000000,4.000000,4.000000,4.000000,4.000000,100.000000,,,,,,,,14.000000,0.000000,0.337498,0.553711,0.334961,-0.683594,1.005875,0.095216,-0.171878,-13.600288,7.925334,57.169582
1618379256.868567,29.000000,0.000000,4215.384766,4229.230957,4161.025879,4161.538574,4220.512695,0.000000,1.000000,15.000000,,,,0.000000,4.000000,4.000000,4.000000,4.000000,4.000000,100.000000,,,,,,,,,,,,,,,,,,,
1618379256.876383,30.000000,0.000000,4220.512695,4233.846191,4171.794922,4175.897461,4220.000000,0.000000,1.000000,15.000000,,,,0.000000,4.000000,4.000000,4.000000,4.000000,4.000000,100.000000,,,,,,,,15.000000,0.000000,0.337256,0.553711,0.335205,-0.683594,1.005386,0.101564,-0.170901,-13.675829,6.534647,57.912685
1618379256.884200,31.000000,0.000000,4228.205078,4241.538574,4183.589844,4185.128418,4226.666504,0.000000,1.000000,15.000000,,,,0.000000,4.000000,4.000000,4.000000,4.000000,4.000000,100.000000,,,,,,,,,,,,,,,,,,,
1618379256.892017,32.000000,0.000000,4225.128418,4237.948730,4181.025879,4184.615234,4222.051270,0.000000,1.000000,15.000000,,,,0.000000,4.000000,4.000000,4.000000,4.000000,4.000000,100.000000,,,,,,,,16.000000,0.000000,0.337256,0.553711,0.335205,-0.683594,0.988296,0.093751,-0.169436,-13.564368,5.283029,58.521660
1618379256.899834,33.000000,0.000000,4222.563965,4235.384766,4179.487305,4190.256348,4215.384766,0.000000,1.000000,15.000000,,,,0.000000,4.000000,4.000000,4.000000,4.000000,4.000000,100.000000,,,,,,,,,,,,,,,,,,,
1618379256.907750,34.000000,0.000000,4225.641113,4238.461426,4185.128418,4182.051270,4221.538574,0.000000,1.000000,15.000000,,,,0.000000,4.000000,4.000000,4.000000,4.000000,4.000000,100.000000,,,,,,,,17.000000,0.000000,0.336760,0.553711,0.335205,-0.683838,0.991714,0.089845,-0.169436,-13.643500,8.044571,59.189369
1618379256.915567,35.000000,0.000000,4234.871582,4240.000000,4186.666504,4174.871582,4232.307617,0.000000,1.000000,15.000000,,,,0.000000,4.000000,4.000000,4.000000,4.000000,4.000000,100.000000,,,,,,,,,,,,,,,,,,,
1618379256.923383,36.000000,0.000000,4244.102539,4240.000000,4185.128418,4193.846191,4235.897461,0.000000,1.000000,15.000000,,,,0.000000,4.000000,4.000000,4.000000,4.000000,4.000000,100.000000,,,,,,,,18.000000,0.000000,0.336760,0.553711,0.335205,-0.683838,0.997574,0.095705,-0.177249,-13.595088,6.641960,59.730492
1618379256.931200,37.000000,0.000000,4238.461426,4242.563965,4185.641113,4203.589844,4231.282227,0.000000,1.000000,15.000000,,,,0.000000,4.000000,4.000000,4.000000,4.000000,4.000000,100.000000,,,,,,,,,,,,,,,,,,,
1618379256.939016,38.000000,0.000000,4233.846191,4242.563965,4188.205078,4192.820313,4226.666504,0.000000,1.000000,15.000000,,,,0.000000,4.000000,4.000000,4.000000,4.000000,4.000000,100.000000,,,,,,,,19.000000,0.000000,0.336760,0.553711,0.335205,-0.683838,0.997086,0.094728,-0.166506,-13.431887,9.147979,60.217503
1618379256.946833,39.000000,0.000000,4236.410156,4235.897461,4182.563965,4184.102539,4220.512695,0.000000,1.000000,15.000000,,,,0.000000,4.000000,4.000000,4.000000,4.000000,4.000000,100.000000,,,,,,,,,,,,,,,,,,,
1618379256.954750,40.000000,0.000000,4229.743652,4231.794922,4169.743652,4181.025879,4209.230957,0.000000,1.000000,15.000000,,,,0.000000,4.000000,4.000000,4.000000,4.000000,4.000000,100.000000,,,,,,,,20.000000,0.000000,0.336760,0.553711,0.335205,-0.683838,0.994644,0.075685,-0.169924,-13.152812,13.493085,58.896938
1618379256.962566,41.000000,0.000000,4225.128418,4235.897461,4167.692383,4181.538574,4209.743652,0.000000,1.000000,15.000000,,,,0.000000,4.000000,4.000000,4.000000,4.000000,4.000000,100.000000,,,,,,,,,,,,,,,,,,,
1618379256.970383,42.000000,0.000000,4234.358887,4240.000000,4176.410156,4179.487305,4222.051270,0.000000,1.000000,15.000000,,,,0.000000,4.000000,4.000000,4.000000,4.000000,4.000000,100.000000,,,,,,,,21.000000,0.000000,0.337161,0.553467,0.335205,-0.683838,0.992691,0.088869,-0.163577,-13.213284,11.605438,57.672840
1618379256.978200,43.000000,0.000000,4234.871582,4233.846191,4177.948730,4167.692383,4224.102539,0.000000,1.000000,15.000000,,,,0.000000,4.000000,4.000000,4.000000,4.000000,4.000000,100.000000,,,,,,,,,,,,,,,,,,,
1618379256.986017,44.000000,0.000000,4225.128418,4228.717773,4173.333496,4170.256348,4217.436035,0.000000,1.000000,15.000000,,,,0.000000,4.000000,4.000000,4.000000,4.000000,4.000000,100.000000,,,,,,,,22.000000,0.000000,0.337161,0.553467,0.335205,-0.683838,0.986343,0.083497,-0.171389,-13.207894,9.547665,56.451527
1618379256.993834,45.000000,0.000000,4230.769043,4235.384766,4174.871582,4179.487305,4222.563965,0.000000,1.000000,15.000000,,,,0.000000,4.000000,4.000000,4.000000,4.000000,4.000000,100.000000,,,,,,,,,,,,,,,,,,,
1618379257.001650,46.000000,0.000000,4241.025879,4239.487305,4181.538574,4176.922852,4237.436035,0.000000,1.000000,15.000000,,,,0.000000,4.000000,4.000000,4.000000,4.000000,4.000000,100.000000,,,,,,,,23.000000,0.000000,0.337161,0.553467,0.335205,-0.683838,0.991714,0.098146,-0.151858,-13.203043,8.174191,57.206615
1618379257.009467,47.000000,0.000000,4237.948730,4226.666504,4186.153809,4188.205078,4235.897461,0.000000,1.000000,15.000000,,,,0.000000,4.000000,4.000000,4.000000,4.000000,4.000000,100.000000,,,,,,,,,,,,,,,,,,,
1618379257.017384,48.000000,0.000000,4233.333496,4223.589844,4183.589844,4204.102539,4226.153809,0.000000,1.000000,15.000000,,,,0.000000,4.000000,4.000000,4.000000,4.000000,4.000000,100.000000,,,,,,,,24.000000,0.000000,0.337161,0.553467,0.335205,-0.683838,0.991714,0.090333,-0.167971,-13.198676,10.706431,55.972107
1618379257.025201,49.000000,0.000000,4233.333496,4237.948730,4177.436035,4193.846191,4230.769043,0.000000,1.000000,15.000000,,,,0.000000,4.000000,4.000000,4.000000,4.000000,4.000000,100.000000,,,,,,,,,,,,,,,,,,,
1618379257.033017,50.000000,0.000000,4231.794922,4242.563965,4172.307617,4184.102539,4235.897461,0.000000,1.000000,15.000000,,,,0.000000,4.000000,4.000000,4.000000,4.000000,4.000000,100.000000,,,,,,,,25.000000,0.000000,0.337161,0.553467,0.335205,-0.683838,1.001968,0.086427,-0.162112,-13.254562,9.097450,56.775143
1618379257.040834,51.000000,0.000000,4227.692383,4238.461426,4172.820313,4187.179688,4224.615234,0.000000,1.000000,15.000000,,,,0.000000,4.000000,4.000000,4.000000,4.000000,4.000000,100.000000,,,,,,,,,,,,,,,,,,,
1618379257.048651,52.000000,0.000000,4221.025879,4233.846191,4172.307617,4176.410156,4209.743652,0.000000,1.000000,15.000000,,,,0.000000,4.000000,4.000000,4.000000,4.000000,4.000000,100.000000,,,,,,,,26.000000,0.000000,0.337161,0.553467,0.335205,-0.683838,0.981460,0.103029,-0.166995,-13.424490,11.417735,55.763226
1618379257.056468,53.000000,0.000000,4218.974121,4234.358887,4166.153809,4169.230957,4213.333496,0.000000,1.000000,15.000000,,,,0.000000,4.000000,4.000000,4.000000,4.000000,4.000000,100.000000,,,,,,,,,,,,,,,,,,,
1618379257.064285,54.000000,0.000000,4231.282227,4236.922852,4166.153809,4177.436035,4226.666504,0.000000,1.000000,15.000000,,,,0.000000,4.000000,4.000000,4.000000,4.000000,4.000000,100.000000,,,,,,,,27.000000,0.000000,0.336666,0.553467,0.335205,-0.684082,0.988296,0.089845,-0.168460,-13.397979,13.745253,56.646961
1618379257.072101,55.000000,0.000000,4235.384766,4234.871582,4171.282227,4172.307617,4221.538574,0.000000,1.000000,15.000000,,,,0.000000,4.000000,4.000000,4.000000,4.000000,4.000000,100.000000,,,,,,,,,,,,,,,,,,,
