title:S31, start timestamp:1618539658.244470, stop timestamp:1618539768.992260, headset type:INSIGHT, headset serial:A2D202F3, headset firmware:932, channels:40, sampling rate:eeg_128;mot_64, samples:14173     , version:2.1, 
Timestamp,EEG.Counter,EEG.Interpolated,EEG.AF3,EEG.T7,EEG.Pz,EEG.T8,EEG.AF4,EEG.RawCq,EEG.Battery,EEG.BatteryPercent,MarkerIndex,MarkerType,MarkerValueInt,EEG.MarkerHardware,CQ.AF3,CQ.T7,CQ.Pz,CQ.T8,CQ.AF4,CQ.Overall,EQ.SampleRateQuality,EQ.OVERALL,EQ.AF3,EQ.T7,EQ.Pz,EQ.T8,EQ.AF4,MOT.CounterMems,MOT.InterpolatedMems,MOT.Q0,MOT.Q1,MOT.Q2,MOT.Q3,MOT.AccX,MOT.AccY,MOT.AccZ,MOT.MagX,MOT.MagY,MOT.MagZ
1618539658.244470,34.000000,0.000000,4352.820313,4939.487305,4260.000000,4174.871582,4316.410156,0.000000,4.000000,77.000000,,,,0.000000,4.000000,2.000000,4.000000,4.000000,4.000000,83.333336,,,,,,,,17.000000,0.000000,0.668211,0.229736,0.570801,-0.418213,0.974136,0.157229,-0.241703,6.311330,13.106597,14.066890
1618539658.252390,35.000000,1.000000,4354.814941,4942.165039,4259.259277,4178.518555,4319.715332,0.000000,4.000000,77.000000,,,,0.000000,4.000000,2.000000,4.000000,4.000000,4.000000,83.333336,,,,,,,,,,,,,,,,,,,
1618539658.260210,36.000000,1.000000,4356.809082,4944.843262,4258.518555,4182.165039,4323.020020,0.000000,4.000000,77.000000,,,,0.000000,4.000000,2.000000,4.000000,4.000000,4.000000,83.333336,,,,,,,,18.000000,1.000000,0.000000,0.229687,0.570801,-0.418262,0.973452,0.160159,0.000000,0.000000,0.000000,0.000000
1618539658.268030,37.000000,1.000000,4358.803223,4947.521484,4257.777832,4185.812012,4326.324707,0.000000,4.000000,77.000000,,,,0.000000,4.000000,2.000000,4.000000,4.000000,4.000000,83.333336,,,,,,,,,,,,,,,,,,,
1618539658.275851,38.000000,1.000000,4360.797852,4950.199219,4257.037109,4189.458496,4329.629395,0.000000,4.000000,77.000000,,,,0.000000,4.000000,2.000000,4.000000,4.000000,4.000000,83.333336,,,,,,,,19.000000,1.000000,0.000000,0.229639,0.570801,-0.418311,0.972769,0.163088,0.000000,0.000000,0.000000,0.000000
1618539658.283671,39.000000,1.000000,4362.791992,4952.877441,4256.296387,4193.105469,4332.934570,0.000000,4.000000,77.000000,,,,0.000000,4.000000,2.000000,4.000000,4.000000,4.000000,83.333336,,,,,,,,,,,,,,,,,,,
1618539658.291491,40.000000,1.000000,4364.786133,4955.555664,4255.555664,4196.751953,4336.239258,0.000000,4.000000,77.000000,,,,0.000000,4.000000,2.000000,4.000000,4.000000,4.000000,83.333336,,,,,,,,20.000000,1.000000,0.000000,0.229590,0.570801,-0.418359,0.972085,0.166018,0.000000,0.000000,0.000000,0.000000
1618539658.299311,41.000000,1.000000,4366.780762,4958.233398,4254.814941,4200.398926,4339.543945,0.000000,4.000000,77.000000,,,,0.000000,4.000000,2.000000,4.000000,4.000000,4.000000,83.333336,,,,,,,,,,,,,,,,,,,
1618539658.307131,42.000000,1.000000,4368.774902,4960.911621,4254.074219,4204.045410,4342.849121,0.000000,4.000000,77.000000,,,,0.000000,4.000000,2.000000,4.000000,4.000000,4.000000,83.333336,,,,,,,,21.000000,1.000000,0.000000,0.229541,0.570801,-0.418408,0.971402,0.168948,0.000000,0.000000,0.000000,0.000000
1618539658.314951,43.000000,0.000000,4370.769043,4963.589844,4253.333496,4207.692383,4346.153809,0.000000,4.000000,77.000000,,,,0.000000,4.000000,2.000000,4.000000,4.000000,4.000000,83.333336,,,,,,,,,,,,,,,,,,,
1618539658.322771,44.000000,0.000000,4365.128418,4989.230957,4250.769043,4204.102539,4342.051270,0.000000,4.000000,77.000000,,,,0.000000,4.000000,2.000000,4.000000,4.000000,4.000000,83.333336,,,,,,,,22.000000,0.000000,0.668142,0.229492,0.570801,-0.418457,0.970718,0.171878,-0.243168,6.756874,14.427813,14.215400
1618539658.330591,45.000000,0.000000,4365.128418,4954.871582,4252.820313,4193.846191,4333.846191,0.000000,4.000000,77.000000,,,,0.000000,4.000000,2.000000,4.000000,4.000000,4.000000,83.333336,,,,,,,,,,,,,,,,,,,
1618539658.338412,46.000000,0.000000,4357.948730,4939.487305,4266.153809,4181.538574,4322.563965,0.000000,4.000000,77.000000,,,,0.000000,4.000000,2.000000,4.000000,4.000000,4.000000,83.333336,,,,,,,,23.000000,0.000000,0.668017,0.229248,0.571045,-0.418457,0.968765,0.173831,-0.233890,7.157863,11.728909,14.289244
1618539658.346232,47.000000,0.000000,4352.307617,4969.743652,4283.077148,4190.769043,4315.384766,0.000000,4.000000,77.000000,,,,0.000000,4.000000,2.000000,4.000000,4.000000,4.000000,83.333336,,,,,,,,,,,,,,,,,,,
1618539658.354052,48.000000,0.000000,4360.512695,4967.179688,4284.615234,4206.153809,4322.563965,0.000000,4.000000,77.000000,,,,0.000000,4.000000,2.000000,4.000000,4.000000,4.000000,83.333336,,,,,,,,24.000000,0.000000,0.668017,0.229248,0.571045,-0.418457,0.970718,0.163577,-0.238773,3.750385,13.128078,14.236073
1618539658.361769,49.000000,0.000000,4373.333496,4980.512695,4276.410156,4208.717773,4334.358887,0.000000,4.000000,77.000000,,,,0.000000,4.000000,2.000000,4.000000,4.000000,4.000000,83.333336,,,,,,,,,,,,,,,,,,,
1618539658.369688,50.000000,1.000000,4373.461426,4978.525879,4274.615234,4210.705078,4334.487305,0.000000,4.000000,77.000000,,,,0.000000,4.000000,2.000000,4.000000,4.000000,4.000000,83.333336,,,,,,,,25.000000,1.000000,0.000000,0.229297,0.571045,-0.418457,0.969644,0.162112,0.000000,0.000000,0.000000,0.000000
1618539658.377507,51.000000,1.000000,4373.589844,4976.538574,4272.820313,4212.692383,4334.615234,0.000000,4.000000,77.000000,,,,0.000000,4.000000,2.000000,4.000000,4.000000,4.000000,83.333336,,,,,,,,,,,,,,,,,,,
1618539658.385327,52.000000,1.000000,4373.717773,4974.551270,4271.025879,4214.679688,4334.743652,0.000000,4.000000,77.000000,,,,0.000000,4.000000,2.000000,4.000000,4.000000,4.000000,83.333336,,,,,,,,26.000000,1.000000,0.000000,0.229346,0.571045,-0.418457,0.968569,0.160647,0.000000,0.000000,0.000000,0.000000
1618539658.393146,53.000000,1.000000,4373.846191,4972.563965,4269.230957,4216.666504,4334.871582,0.000000,4.000000,77.000000,,,,0.000000,4.000000,2.000000,4.000000,4.000000,4.000000,83.333336,,,,,,,,,,,,,,,,,,,
1618539658.400965,54.000000,1.000000,4373.974121,4970.577148,4267.436035,4218.653809,4335.000000,0.000000,4.000000,77.000000,,,,0.000000,4.000000,2.000000,4.000000,4.000000,4.000000,83.333336,,,,,,,,27.000000,1.000000,0.000000,0.229395,0.571045,-0.418457,0.967495,0.159182,0.000000,0.000000,0.000000,0.000000
1618539658.408784,55.000000,1.000000,4374.102539,4968.589844,4265.641113,4220.641113,4335.128418,0.000000,4.000000,77.000000,,,,0.000000,4.000000,2.000000,4.000000,4.000000,4.000000,83.333336,,,,,,,,,,,,,,,,,,,
1618539658.416603,56.000000,1.000000,4374.230957,4966.602539,4263.846191,4222.628418,4335.256348,0.000000,4.000000,77.000000,,,,0.000000,4.000000,2.000000,4.000000,4.000000,4.000000,83.333336,,,,,,,,28.000000,1.000000,0.000000,0.229443,0.571045,-0.418457,0.966421,0.157717,0.000000,0.000000,0.000000,0.000000
1618539658.424423,57.000000,0.000000,4374.358887,4964.615234,4262.051270,4224.615234,4335.384766,0.000000,4.000000,77.000000,,,,0.000000,4.000000,2.000000,4.000000,4.000000,4.000000,83.333336,,,,,,,,,,,,,,,,,,,
1618539658.432242,58.000000,0.000000,4380.512695,4963.077148,4269.743652,4218.461426,4334.871582,0.000000,4.000000,77.000000,,,,0.000000,4.000000,2.000000,4.000000,4.000000,4.000000,83.333336,,,,,,,,29.000000,0.000000,0.667933,0.229492,0.571045,-0.418457,0.965347,0.156252,-0.236820,6.425931,10.618963,14.307850
1618539658.440061,59.000000,0.000000,4375.897461,4973.333496,4265.641113,4208.717773,4326.666504,0.000000,4.000000,77.000000,,,,0.000000,4.000000,2.000000,4.000000,4.000000,4.000000,83.333336,,,,,,,,,,,,,,,,,,,
1618539658.447880,60.000000,0.000000,4363.589844,4964.102539,4255.384766,4211.794922,4317.436035,0.000000,4.000000,77.000000,,,,0.000000,4.000000,2.000000,4.000000,4.000000,4.000000,83.333336,,,,,,,,30.000000,0.000000,0.667877,0.229492,0.571289,-0.418213,0.958999,0.148928,-0.240238,6.919829,8.300944,14.432264
1618539658.455699,61.000000,0.000000,4363.589844,4941.538574,4254.871582,4214.871582,4316.410156,0.000000,4.000000,77.000000,,,,0.000000,4.000000,2.000000,4.000000,4.000000,4.000000,83.333336,,,,,,,,,,,,,,,,,,,
1618539658.463518,62.000000,0.000000,4370.769043,4955.384766,4258.974121,4218.461426,4323.077148,0.000000,4.000000,77.000000,,,,0.000000,4.000000,2.000000,4.000000,4.000000,4.000000,83.333336,,,,,,,,31.000000,0.000000,0.667877,0.229492,0.571289,-0.418213,0.964858,0.154788,-0.229984,3.536155,9.983095,14.484422
1618539658.471236,63.000000,0.000000,4375.384766,4973.846191,4253.333496,4224.615234,4325.128418,0.000000,4.000000,77.000000,,,,0.000000,4.000000,2.000000,4.000000,4.000000,4.000000,83.333336,,,,,,,,,,,,,,,,,,,
1618539658.479054,64.000000,0.000000,4372.820313,4962.051270,4244.615234,4227.179688,4315.897461,450.000000,4.000000,77.000000,,,,0.000000,4.000000,2.000000,4.000000,4.000000,4.000000,83.333336,,,,,,,,32.000000,0.000000,0.667793,0.229736,0.571289,-0.418213,0.959976,0.158694,-0.241215,6.292938,7.788478,14.650995
1618539658.486872,65.000000,0.000000,4365.128418,4946.666504,4245.641113,4216.922852,4303.077148,450.000000,4.000000,77.000000,,,,0.000000,4.000000,2.000000,4.000000,4.000000,4.000000,83.333336,,,,,,,,,,,,,,,,,,,
1618539658.494690,66.000000,0.000000,4367.692383,4954.871582,4254.871582,4212.820313,4307.179688,16229.000000,4.000000,77.000000,,,,0.000000,4.000000,2.000000,4.000000,4.000000,4.000000,83.333336,,,,,,,,33.000000,0.000000,0.667793,0.229736,0.571289,-0.418213,0.964858,0.162600,-0.239750,6.800137,9.581692,14.681279
1618539658.502507,67.000000,0.000000,4381.025879,4958.974121,4264.102539,4228.717773,4323.589844,450.000000,4.000000,77.000000,,,,0.000000,4.000000,2.000000,4.000000,4.000000,4.000000,83.333336,,,,,,,,,,,,,,,,,,,
1618539658.510325,68.000000,0.000000,4381.538574,4940.000000,4260.000000,4237.948730,4321.025879,267.000000,4.000000,77.000000,,,,0.000000,4.000000,2.000000,4.000000,4.000000,4.000000,83.333336,,,,,,,,34.000000,0.000000,0.667668,0.229492,0.571533,-0.418213,0.983902,0.157229,-0.230472,5.521969,7.427215,14.708536
1618539658.518143,69.000000,0.000000,4372.820313,4953.333496,4245.128418,4229.230957,4307.692383,450.000000,4.000000,77.000000,,,,0.000000,4.000000,2.000000,4.000000,4.000000,4.000000,83.333336,,,,,,,,,,,,,,,,,,,
1618539658.525960,70.000000,0.000000,4371.794922,4981.025879,4242.563965,4229.230957,4305.128418,16204.000000,4.000000,77.000000,,,,0.000000,4.000000,2.000000,4.000000,4.000000,4.000000,83.333336,,,,,,,,35.000000,0.000000,0.667584,0.229736,0.571533,-0.418213,0.958022,0.158694,-0.240726,4.251988,5.428371,14.733067
1618539658.533778,71.000000,0.000000,4366.153809,4962.563965,4249.230957,4230.256348,4299.487305,450.000000,4.000000,77.000000,,,,0.000000,4.000000,2.000000,4.000000,4.000000,4.000000,83.333336,,,,,,,,,,,,,,,,,,,
1618539658.541496,72.000000,0.000000,4348.205078,4924.102539,4248.717773,4212.820313,4279.487305,450.000000,4.000000,77.000000,,,,0.000000,4.000000,2.000000,4.000000,4.000000,4.000000,83.333336,,,,,,,,36.000000,0.000000,0.667668,0.229492,0.571533,-0.418213,0.967300,0.153323,-0.242191,7.056819,3.629411,14.755144
1618539658.549314,73.000000,0.000000,4341.538574,4929.230957,4248.717773,4203.077148,4268.717773,16071.000000,4.000000,77.000000,,,,0.000000,4.000000,2.000000,4.000000,4.000000,4.000000,83.333336,,,,,,,,,,,,,,,,,,,
1618539658.557132,74.000000,0.000000,4352.307617,4962.563965,4254.358887,4206.666504,4286.153809,450.000000,4.000000,77.000000,,,,0.000000,4.000000,2.000000,4.000000,4.000000,4.000000,83.333336,,,,,,,,37.000000,0.000000,0.667668,0.229492,0.571533,-0.418213,0.983902,0.157229,-0.230472,3.779076,5.838531,14.834829
1618539658.564949,75.000000,0.000000,4358.461426,4950.769043,4255.897461,4205.128418,4302.563965,16229.000000,4.000000,77.000000,,,,0.000000,4.000000,2.000000,4.000000,4.000000,4.000000,83.333336,,,,,,,,,,,,,,,,,,,
1618539658.572767,76.000000,0.000000,4351.794922,4930.769043,4245.128418,4207.179688,4293.846191,450.000000,4.000000,77.000000,,,,0.000000,4.000000,2.000000,4.000000,4.000000,4.000000,83.333336,,,,,,,,38.000000,0.000000,0.667668,0.229492,0.571533,-0.418213,0.967300,0.153323,-0.242191,6.631198,3.998555,14.846730
1618539658.580585,77.000000,0.000000,4348.717773,4937.948730,4230.769043,4206.153809,4278.461426,450.000000,4.000000,77.000000,,,,0.000000,4.000000,2.000000,4.000000,4.000000,4.000000,83.333336,,,,,,,,,,,,,,,,,,,
1618539658.588403,78.000000,0.000000,4355.897461,4947.179688,4226.666504,4196.922852,4279.487305,450.000000,4.000000,77.000000,,,,0.000000,4.000000,2.000000,4.000000,4.000000,4.000000,83.333336,,,,,,,,39.000000,0.000000,0.667668,0.229492,0.571533,-0.418213,0.974136,0.163088,-0.233402,3.396018,6.170760,14.917256
1618539658.596220,79.000000,0.000000,4363.077148,4963.589844,4235.897461,4204.102539,4285.128418,16229.000000,4.000000,77.000000,,,,0.000000,4.000000,2.000000,4.000000,4.000000,4.000000,83.333336,,,,,,,,,,,,,,,,,,,
1618539658.604038,80.000000,0.000000,4370.256348,4964.615234,4248.205078,4228.717773,4288.205078,450.000000,4.000000,77.000000,,,,0.000000,4.000000,2.000000,4.000000,4.000000,4.000000,83.333336,,,,,,,,40.000000,0.000000,0.667584,0.229736,0.571533,-0.418213,0.978531,0.163577,-0.244144,0.484355,8.065929,14.741469
1618539658.611756,81.000000,0.000000,4382.563965,4926.666504,4249.743652,4238.461426,4295.897461,450.000000,4.000000,77.000000,,,,0.000000,4.000000,2.000000,4.000000,4.000000,4.000000,83.333336,,,,,,,,,,,,,,,,,,,
1618539658.619573,82.000000,0.000000,4382.051270,4929.230957,4232.820313,4225.641113,4294.358887,450.000000,4.000000,77.000000,,,,0.000000,4.000000,2.000000,4.000000,4.000000,4.000000,83.333336,,,,,,,,41.000000,0.000000,0.667668,0.229492,0.571533,-0.418213,0.964370,0.155764,-0.232914,1.452781,5.943398,14.702891
1618539658.627391,83.000000,0.000000,4368.717773,4964.102539,4220.512695,4211.282227,4284.102539,16229.000000,4.000000,77.000000,,,,0.000000,4.000000,2.000000,4.000000,4.000000,4.000000,83.333336,,,,,,,,,,,,,,,,,,,
1618539658.635208,84.000000,0.000000,4366.153809,4935.897461,4233.333496,4211.282227,4284.615234,450.000000,4.000000,77.000000,,,,0.000000,4.000000,2.000000,4.000000,4.000000,4.000000,83.333336,,,,,,,,42.000000,0.000000,0.667877,0.229492,0.571289,-0.418213,0.965347,0.161135,-0.236332,2.443995,7.980935,14.787802
1618539658.643026,85.000000,0.000000,4371.794922,4932.820313,4248.205078,4223.077148,4287.692383,450.000000,4.000000,77.000000,,,,0.000000,4.000000,2.000000,4.000000,4.000000,4.000000,83.333336,,,,,,,,,,,,,,,,,,,
1618539658.650843,86.000000,0.000000,4375.384766,4978.974121,4253.846191,4225.641113,4287.179688,450.000000,4.000000,77.000000,,,,0.000000,4.000000,2.000000,4.000000,4.000000,4.000000,83.333336,,,,,,,,43.000000,0.000000,0.667877,0.229492,0.571289,-0.418213,0.968765,0.160647,-0.242679,-0.312650,9.874533,14.744590
1618539658.658661,87.000000,0.000000,4385.128418,4957.436035,4264.102539,4223.077148,4299.487305,16229.000000,4.000000,77.000000,,,,0.000000,4.000000,2.000000,4.000000,4.000000,4.000000,83.333336,,,,,,,,,,,,,,,,,,,
1618539658.666478,88.000000,0.000000,4389.743652,4932.820313,4265.641113,4231.794922,4309.743652,450.000000,4.000000,77.000000,,,,0.000000,4.000000,2.000000,4.000000,4.000000,4.000000,83.333336,0.847656,83.333336,4.000000,2.000000,4.000000,4.000000,4.000000,44.000000,0.000000,0.667515,0.229492,0.571533,-0.418457,0.969253,0.166018,-0.230961,-0.879539,7.750587,14.526254
1618539658.674296,89.000000,0.000000,4375.384766,4934.871582,4251.794922,4234.358887,4291.282227,450.000000,4.000000,77.000000,,,,0.000000,4.000000,2.000000,4.000000,4.000000,4.000000,83.333336,,,,,,,,,,,,,,,,,,,
1618539658.682013,90.000000,0.000000,4371.794922,4915.384766,4245.641113,4223.589844,4281.025879,450.000000,4.000000,77.000000,,,,0.000000,4.000000,2.000000,4.000000,4.000000,4.000000,83.333336,,,,,,,,45.000000,0.000000,0.667515,0.229492,0.571533,-0.418457,0.963394,0.163088,-0.239261,-1.449554,5.779222,14.389566
1618539658.689831,91.000000,0.000000,4390.256348,4935.384766,4250.769043,4228.717773,4305.128418,16229.000000,4.000000,77.000000,,,,0.000000,4.000000,2.000000,4.000000,4.000000,4.000000,83.333336,,,,,,,,,,,,,,,,,,,
1618539658.697648,92.000000,0.000000,4396.922852,4966.666504,4258.461426,4237.948730,4315.384766,450.000000,4.000000,77.000000,,,,0.000000,4.000000,2.000000,4.000000,4.000000,4.000000,83.333336,,,,,,,,46.000000,0.000000,0.667515,0.229492,0.571533,-0.418457,0.952163,0.163088,-0.246586,-0.108291,3.945177,14.386179
1618539658.705569,93.000000,1.000000,4394.416016,4961.652344,4258.176758,4235.156738,4312.820313,450.000000,4.000000,77.000000,,,,0.000000,4.000000,2.000000,4.000000,4.000000,4.000000,83.333336,,,,,,,,,,,,,,,,,,,
1618539658.713389,94.000000,1.000000,4391.908691,4956.638184,4257.891602,4232.364746,4310.256348,450.000000,4.000000,77.000000,,,,0.000000,4.000000,2.000000,4.000000,4.000000,4.000000,83.333336,,,,,,,,47.000000,1.000000,0.000000,0.229492,0.571484,-0.418506,0.954116,0.162405,0.000000,0.000000,0.000000,0.000000
1618539658.721210,95.000000,1.000000,4389.401855,4951.624023,4257.606934,4229.572754,4307.692383,450.000000,4.000000,77.000000,,,,0.000000,4.000000,2.000000,4.000000,4.000000,4.000000,83.333336,,,,,,,,,,,,,,,,,,,
1618539658.729031,96.000000,1.000000,4386.894531,4946.609863,4257.321777,4226.780762,4305.128418,450.000000,4.000000,77.000000,,,,0.000000,4.000000,2.000000,4.000000,4.000000,4.000000,83.333336,,,,,,,,48.000000,1.000000,0.000000,0.229492,0.571436,-0.418555,0.956069,0.161721,0.000000,0.000000,0.000000,0.000000
1618539658.736851,97.000000,1.000000,4384.387695,4941.595215,4257.037109,4223.988770,4302.563965,450.000000,4.000000,77.000000,,,,0.000000,4.000000,2.000000,4.000000,4.000000,4.000000,83.333336,,,,,,,,,,,,,,,,,,,
1618539658.744672,98.000000,1.000000,4381.880371,4936.581055,4256.751953,4221.196777,4300.000000,450.000000,4.000000,77.000000,,,,0.000000,4.000000,2.000000,4.000000,4.000000,4.000000,83.333336,,,,,,,,49.000000,1.000000,0.000000,0.229492,0.571387,-0.418604,0.958022,0.161038,0.000000,0.000000,0.000000,0.000000
1618539658.752492,99.000000,1.000000,4379.373047,4931.566895,4256.467285,4218.404785,4297.436035,450.000000,4.000000,77.000000,,,,0.000000,4.000000,2.000000,4.000000,4.000000,4.000000,83.333336,,,,,,,,,,,,,,,,,,,
1618539658.760313,100.000000,1.000000,4376.866211,4926.552734,4256.182129,4215.612305,4294.871582,450.000000,4.000000,77.000000,,,,0.000000,4.000000,2.000000,4.000000,4.000000,4.000000,83.333336,,,,,,,,50.000000,1.000000,0.000000,0.229492,0.571338,-0.418652,0.959976,0.160354,0.000000,0.000000,0.000000,0.000000
1618539658.768134,101.000000,0.000000,4374.358887,4921.538574,4255.897461,4212.820313,4292.307617,450.000000,4.000000,77.000000,,,,0.000000,4.000000,2.000000,4.000000,4.000000,4.000000,83.333336,,,,,,,,,,,,,,,,,,,
1618539658.775954,102.000000,0.000000,4366.666504,4935.897461,4247.179688,4210.769043,4285.128418,450.000000,4.000000,77.000000,,,,0.000000,4.000000,2.000000,4.000000,4.000000,4.000000,83.333336,,,,,,,,51.000000,0.000000,0.667571,0.229492,0.571289,-0.418701,0.961929,0.159670,-0.243656,1.039030,2.234721,14.442945
1618539658.783775,103.000000,0.000000,4368.205078,4924.102539,4234.871582,4216.410156,4285.128418,16229.000000,4.000000,77.000000,,,,0.000000,4.000000,2.000000,4.000000,4.000000,4.000000,83.333336,,,,,,,,,,,,,,,,,,,
1618539658.791596,104.000000,0.000000,4361.025879,4899.487305,4232.307617,4217.436035,4280.512695,450.000000,4.000000,77.000000,,,,0.000000,4.000000,2.000000,4.000000,4.000000,4.000000,83.333336,,,,,,,,52.000000,0.000000,0.667571,0.229492,0.571289,-0.418701,0.968277,0.155276,-0.240238,0.157527,4.344048,14.434219
1618539658.799416,105.000000,0.000000,4348.205078,4933.333496,4236.922852,4213.846191,4269.230957,450.000000,4.000000,77.000000,,,,0.000000,4.000000,2.000000,4.000000,4.000000,4.000000,83.333336,,,,,,,,,,,,,,,,,,,
1618539658.807134,106.000000,0.000000,4344.102539,4945.641113,4238.461426,4221.025879,4257.436035,450.000000,4.000000,77.000000,,,,0.000000,4.000000,2.000000,4.000000,4.000000,4.000000,83.333336,,,,,,,,53.000000,0.000000,0.667571,0.229492,0.571289,-0.418701,0.961929,0.164065,-0.252445,-2.430286,6.421889,14.306735
1618539658.814953,107.000000,0.000000,4333.333496,4886.153809,4238.974121,4232.307617,4241.538574,16229.000000,4.000000,77.000000,,,,0.000000,4.000000,2.000000,4.000000,4.000000,4.000000,83.333336,,,,,,,,,,,,,,,,,,,
1618539658.822771,108.000000,0.000000,4312.820313,4889.743652,4243.077148,4229.743652,4228.205078,450.000000,4.000000,77.000000,,,,0.000000,4.000000,2.000000,4.000000,4.000000,4.000000,83.333336,,,,,,,,54.000000,0.000000,0.667418,0.229492,0.571289,-0.418945,0.952651,0.166506,-0.245121,0.923141,8.351761,14.431261
1618539658.830589,109.000000,0.000000,4309.230957,4942.563965,4247.692383,4222.563965,4230.256348,450.000000,4.000000,77.000000,,,,0.000000,4.000000,2.000000,4.000000,4.000000,4.000000,83.333336,,,,,,,,,,,,,,,,,,,
1618539658.838509,110.000000,0.000000,4323.077148,4939.487305,4254.871582,4225.128418,4239.487305,450.000000,4.000000,77.000000,,,,0.000000,4.000000,2.000000,4.000000,4.000000,4.000000,83.333336,,,,,,,,55.000000,0.000000,0.667627,0.229492,0.571045,-0.418945,0.960952,0.155276,-0.245121,-1.801049,10.028830,14.483520
1618539658.846329,111.000000,1.000000,4326.438965,4936.296387,4252.193848,4224.900391,4242.678223,2203.222168,4.000000,77.000000,,,,0.000000,4.000000,2.000000,4.000000,4.000000,4.000000,83.333336,,,,,,,,,,,,,,,,,,,
1618539658.854149,112.000000,1.000000,4329.800781,4933.105469,4249.515625,4224.672363,4245.869141,3956.444336,4.000000,77.000000,,,,0.000000,4.000000,2.000000,4.000000,4.000000,4.000000,83.333336,,,,,,,,56.000000,1.000000,0.000000,0.229443,0.571045,-0.418994,0.962905,0.154788,0.000000,0.000000,0.000000,0.000000
1618539658.861969,113.000000,1.000000,4333.162598,4929.914551,4246.837402,4224.444336,4249.060059,5709.666504,4.000000,77.000000,,,,0.000000,4.000000,2.000000,4.000000,4.000000,4.000000,83.333336,,,,,,,,,,,,,,,,,,,
1618539658.869788,114.000000,1.000000,4336.524414,4926.723633,4244.159668,4224.216309,4252.250488,7462.888672,4.000000,77.000000,,,,0.000000,4.000000,2.000000,4.000000,4.000000,4.000000,83.333336,,,,,,,,57.000000,1.000000,0.000000,0.229395,0.571045,-0.419043,0.964858,0.154299,0.000000,0.000000,0.000000,0.000000
1618539658.877608,115.000000,1.000000,4339.886230,4923.532715,4241.481445,4223.988770,4255.441406,9216.111328,4.000000,77.000000,,,,0.000000,4.000000,2.000000,4.000000,4.000000,4.000000,83.333336,,,,,,,,,,,,,,,,,,,
1618539658.885428,116.000000,1.000000,4343.248047,4920.341797,4238.803223,4223.760742,4258.632324,10969.333008,4.000000,77.000000,,,,0.000000,4.000000,2.000000,4.000000,4.000000,4.000000,83.333336,,,,,,,,58.000000,1.000000,0.000000,0.229346,0.571045,-0.419092,0.966812,0.153811,0.000000,0.000000,0.000000,0.000000
1618539658.893248,117.000000,1.000000,4346.609863,4917.150879,4236.125488,4223.532715,4261.823242,12722.555664,4.000000,77.000000,,,,0.000000,4.000000,2.000000,4.000000,4.000000,4.000000,83.333336,,,,,,,,,,,,,,,,,,,
1618539658.901068,118.000000,1.000000,4349.971680,4913.959961,4233.447266,4223.304688,4265.014160,14475.777344,4.000000,77.000000,,,,0.000000,4.000000,2.000000,4.000000,4.000000,4.000000,83.333336,,,,,,,,59.000000,1.000000,0.000000,0.229297,0.571045,-0.419141,0.968765,0.153323,0.000000,0.000000,0.000000,0.000000
1618539658.908888,119.000000,0.000000,4353.333496,4910.769043,4230.769043,4223.077148,4268.205078,16229.000000,4.000000,77.000000,,,,0.000000,4.000000,2.000000,4.000000,4.000000,4.000000,83.333336,,,,,,,,,,,,,,,,,,,
1618539658.916708,120.000000,0.000000,4349.230957,4908.205078,4236.922852,4233.333496,4254.871582,450.000000,4.000000,77.000000,,,,0.000000,4.000000,2.000000,4.000000,4.000000,4.000000,83.333336,,,,,,,,60.000000,0.000000,0.667558,0.229248,0.571045,-0.419189,0.970718,0.152834,-0.243656,-4.372451,11.358747,14.709997
1618539658.924528,121.000000,0.000000,4338.974121,4911.794922,4249.230957,4243.077148,4242.563965,450.000000,4.000000,77.000000,,,,0.000000,4.000000,2.000000,4.000000,4.000000,4.000000,83.333336,,,,,,,,,,,,,,,,,,,
1618539658.932348,122.000000,0.000000,4334.871582,4920.512695,4249.743652,4243.589844,4238.974121,450.000000,4.000000,77.000000,,,,0.000000,4.000000,2.000000,4.000000,4.000000,4.000000,83.333336,,,,,,,,61.000000,0.000000,0.667558,0.229248,0.571045,-0.419189,0.979019,0.160647,-0.244633,-2.679083,8.906934,14.614751
1618539658.940167,123.000000,0.000000,4337.436035,4920.512695,4247.692383,4233.333496,4244.102539,16229.000000,4.000000,77.000000,,,,0.000000,4.000000,2.000000,4.000000,4.000000,4.000000,83.333336,,,,,,,,,,,,,,,,,,,
1618539658.947987,124.000000,0.000000,4345.128418,4916.922852,4251.282227,4226.153809,4254.358887,450.000000,4.000000,77.000000,,,,0.000000,4.000000,2.000000,4.000000,4.000000,4.000000,83.333336,,,,,,,,62.000000,0.000000,0.667558,0.229248,0.571045,-0.419189,0.967300,0.155276,-0.239750,-1.214867,10.588301,14.588845
1618539658.955705,125.000000,0.000000,4354.358887,4918.974121,4250.256348,4230.256348,4262.563965,450.000000,4.000000,77.000000,,,,0.000000,4.000000,2.000000,4.000000,4.000000,4.000000,83.333336,,,,,,,,,,,,,,,,,,,
1618539658.963523,126.000000,0.000000,4355.897461,4909.230957,4242.563965,4236.922852,4258.461426,450.000000,4.000000,77.000000,,,,0.000000,4.000000,2.000000,4.000000,4.000000,4.000000,83.333336,,,,,,,,63.000000,0.000000,0.667474,0.229492,0.571045,-0.419189,0.964370,0.160647,-0.237308,0.102927,12.101531,14.565529
1618539658.971341,127.000000,0.000000,4348.205078,4882.563965,4234.358887,4222.051270,4249.230957,239.000000,4.000000,77.000000,,,,0.000000,4.000000,2.000000,4.000000,4.000000,4.000000,83.333336,,,,,,,,,,,,,,,,,,,
1618539658.979158,0.000000,0.000000,4348.205078,4882.051270,4229.743652,4202.563965,4252.820313,450.000000,4.000000,77.000000,,,,0.000000,4.000000,2.000000,4.000000,4.000000,4.000000,83.333336,,,,,,,,0.000000,0.000000,0.667683,0.229492,0.570801,-0.419189,0.958022,0.154788,-0.238285,3.203033,9.575440,14.544545
1618539658.986976,1.000000,0.000000,4354.871582,4907.179688,4226.153809,4200.512695,4256.410156,450.000000,4.000000,77.000000,,,,0.000000,4.000000,2.000000,4.000000,4.000000,4.000000,83.333336,,,,,,,,,,,,,,,,,,,
1618539658.994794,2.000000,0.000000,4341.538574,4906.153809,4217.436035,4184.615234,4241.538574,16233.000000,4.000000,77.000000,,,,0.000000,4.000000,2.000000,4.000000,4.000000,4.000000,83.333336,,,,,,,,1.000000,0.000000,0.667683,0.229492,0.570801,-0.419189,0.962905,0.155276,-0.243168,0.191038,11.130141,14.585475
1618539659.002612,3.000000,0.000000,4318.974121,4897.436035,4212.307617,4166.153809,4221.538574,450.000000,4.000000,77.000000,,,,0.000000,4.000000,2.000000,4.000000,4.000000,4.000000,83.333336,,,,,,,,,,,,,,,,,,,
1618539659.010330,4.000000,0.000000,4320.512695,4905.128418,4222.051270,4177.436035,4221.025879,262.000000,4.000000,77.000000,,,,0.000000,4.000000,2.000000,4.000000,4.000000,4.000000,83.333336,,,,,,,,2.000000,0.000000,0.667683,0.229492,0.570801,-0.419189,0.951186,0.166506,-0.242679,3.102887,8.581558,14.682127
1618539659.018149,5.000000,0.000000,4326.666504,4891.794922,4230.256348,4188.205078,4229.230957,450.000000,4.000000,77.000000,,,,0.000000,4.000000,2.000000,4.000000,4.000000,4.000000,83.333336,,,,,,,,,,,,,,,,,,,
1618539659.025968,6.000000,0.000000,4324.102539,4878.461426,4229.230957,4170.256348,4233.333496,16224.000000,4.000000,77.000000,,,,0.000000,4.000000,2.000000,4.000000,4.000000,4.000000,83.333336,,,,,,,,3.000000,0.000000,0.667683,0.229492,0.570801,-0.419189,0.966323,0.155764,-0.242191,3.988906,10.116017,14.589667
1618539659.033787,7.000000,0.000000,4334.358887,4903.589844,4232.307617,4158.974121,4240.512695,450.000000,4.000000,77.000000,,,,0.000000,4.000000,2.000000,4.000000,4.000000,4.000000,83.333336,,,,,,,,,,,,,,,,,,,
1618539659.041605,8.000000,0.000000,4348.717773,4913.333496,4237.436035,4169.230957,4246.153809,450.000000,4.000000,77.000000,,,,0.000000,4.000000,2.000000,4.000000,4.000000,4.000000,83.333336,,,,,,,,4.000000,0.000000,0.667683,0.229492,0.570801,-0.419189,0.955581,0.142092,-0.233890,4.726507,11.616661,14.506454
1618539659.049424,9.000000,0.000000,4349.230957,4898.974121,4234.871582,4183.077148,4248.717773,16082.000000,4.000000,77.000000,,,,0.000000,4.000000,2.000000,4.000000,4.000000,4.000000,83.333336,,,,,,,,,,,,,,,,,,,
1618539659.057243,10.000000,0.000000,4353.333496,4909.230957,4231.794922,4200.000000,4259.487305,450.000000,4.000000,77.000000,,,,0.000000,4.000000,2.000000,4.000000,4.000000,4.000000,83.333336,,,,,,,,5.000000,0.000000,0.667474,0.229492,0.571045,-0.419189,0.964370,0.150881,-0.247562,7.244625,9.198873,14.371747
1618539659.065061,11.000000,0.000000,4357.948730,4916.410156,4228.205078,4208.717773,4266.153809,16236.000000,4.000000,77.000000,,,,0.000000,4.000000,2.000000,4.000000,4.000000,4.000000,83.333336,,,,,,,,,,,,,,,,,,,
1618539659.072880,12.000000,0.000000,4352.307617,4893.333496,4216.410156,4203.077148,4257.436035,450.000000,4.000000,77.000000,,,,0.000000,4.000000,2.000000,4.000000,4.000000,4.000000,83.333336,,,,,,,,6.000000,0.000000,0.667558,0.229248,0.571045,-0.419189,0.968277,0.140139,-0.248051,3.948102,11.030492,14.429956
1618539659.080699,13.000000,0.000000,4347.692383,4895.897461,4210.256348,4196.922852,4256.922852,450.000000,4.000000,77.000000,,,,0.000000,4.000000,2.000000,4.000000,4.000000,4.000000,83.333336,,,,,,,,,,,,,,,,,,,
1618539659.088417,14.000000,0.000000,4342.563965,4925.641113,4219.487305,4197.436035,4264.102539,450.000000,4.000000,77.000000,,,,0.000000,4.000000,2.000000,4.000000,4.000000,4.000000,83.333336,,,,,,,,7.000000,0.000000,0.667558,0.229248,0.571045,-0.419189,0.971695,0.147463,-0.254887,4.749599,8.731135,14.362714
1618539659.096236,15.000000,0.000000,4333.846191,4899.487305,4224.615234,4190.256348,4254.358887,16236.000000,4.000000,77.000000,,,,0.000000,4.000000,2.000000,4.000000,4.000000,4.000000,83.333336,,,,,,,,,,,,,,,,,,,
1618539659.104054,16.000000,0.000000,4332.307617,4865.128418,4218.974121,4185.641113,4242.051270,0.000000,4.000000,77.000000,,,,0.000000,4.000000,2.000000,4.000000,4.000000,4.000000,83.333336,,,,,,,,8.000000,0.000000,0.667488,0.229004,0.571045,-0.419434,0.980484,0.171389,-0.241215,1.702578,10.430082,14.541457
1618539659.111873,17.000000,0.000000,4341.025879,4907.692383,4227.692383,4200.000000,4256.410156,0.000000,4.000000,77.000000,,,,0.000000,4.000000,2.000000,4.000000,4.000000,4.000000,83.333336,,,,,,,,,,,,,,,,,,,
1618539659.119691,18.000000,0.000000,4346.666504,4936.410156,4243.589844,4209.743652,4272.820313,0.000000,4.000000,77.000000,,,,0.000000,4.000000,2.000000,4.000000,4.000000,4.000000,83.333336,,,,,,,,9.000000,0.000000,0.667488,0.229004,0.571045,-0.419434,0.963882,0.163577,-0.237308,4.642719,8.011321,14.403250
1618539659.127510,19.000000,0.000000,4344.615234,4904.102539,4242.051270,4199.487305,4268.205078,0.000000,4.000000,77.000000,,,,0.000000,4.000000,2.000000,4.000000,4.000000,4.000000,83.333336,,,,,,,,,,,,,,,,,,,
1618539659.135328,20.000000,0.000000,4346.666504,4903.077148,4227.179688,4193.846191,4266.153809,0.000000,4.000000,77.000000,,,,0.000000,4.000000,2.000000,4.000000,4.000000,4.000000,83.333336,,,,,,,,10.000000,0.000000,0.667488,0.229004,0.571045,-0.419434,0.966323,0.162112,-0.241703,5.374755,9.842065,14.278863
1618539659.143147,21.000000,0.000000,4355.384766,4917.436035,4220.000000,4205.641113,4277.948730,0.000000,4.000000,77.000000,,,,0.000000,4.000000,2.000000,4.000000,4.000000,4.000000,83.333336,,,,,,,,,,,,,,,,,,,
1618539659.150965,22.000000,0.000000,4364.102539,4914.871582,4222.051270,4208.205078,4280.000000,0.000000,4.000000,77.000000,,,,0.000000,4.000000,2.000000,4.000000,4.000000,4.000000,83.333336,,,,,,,,11.000000,0.000000,0.667418,0.228760,0.571045,-0.419678,0.950698,0.161135,-0.249027,6.033587,7.781182,14.286546
1618539659.158783,23.000000,0.000000,4364.102539,4924.615234,4227.692383,4198.974121,4267.692383,0.000000,4.000000,77.000000,,,,0.000000,4.000000,2.000000,4.000000,4.000000,4.000000,83.333336,,,,,,,,,,,,,,,,,,,
1618539659.166502,24.000000,0.000000,4356.922852,4907.179688,4231.794922,4189.743652,4262.051270,0.000000,4.000000,77.000000,,,,0.000000,4.000000,2.000000,4.000000,4.000000,4.000000,83.333336,0.816406,83.333336,4.000000,2.000000,4.000000,4.000000,4.000000,12.000000,0.000000,0.667418,0.228760,0.571045,-0.419678,0.958022,0.162112,-0.237797,8.540627,5.806756,14.413091
1618539659.174320,25.000000,0.000000,4357.436035,4868.205078,4233.333496,4181.025879,4270.256348,0.000000,4.000000,77.000000,,,,0.000000,4.000000,2.000000,4.000000,4.000000,4.000000,83.333336,,,,,,,,,,,,,,,,,,,
1618539659.182138,26.000000,0.000000,4366.153809,4883.589844,4236.410156,4185.128418,4278.461426,0.000000,4.000000,77.000000,,,,0.000000,4.000000,2.000000,4.000000,4.000000,4.000000,83.333336,,,,,,,,13.000000,0.000000,0.667488,0.229004,0.571045,-0.419434,0.966323,0.162112,-0.241703,8.882872,7.857957,14.287720
1618539659.189956,27.000000,0.000000,4361.025879,4919.487305,4233.333496,4190.256348,4268.205078,0.000000,4.000000,77.000000,,,,0.000000,4.000000,2.000000,4.000000,4.000000,4.000000,83.333336,,,,,,,,,,,,,,,,,,,
1618539659.197775,28.000000,0.000000,4347.179688,4902.563965,4227.179688,4189.743652,4256.410156,0.000000,4.000000,77.000000,,,,0.000000,4.000000,2.000000,4.000000,4.000000,4.000000,83.333336,,,,,,,,14.000000,0.000000,0.667335,0.229004,0.571045,-0.419678,0.972671,0.161135,-0.246098,9.190892,9.704038,14.234701
1618539659.205593,29.000000,0.000000,4351.282227,4900.000000,4232.307617,4201.538574,4265.641113,0.000000,4.000000,77.000000,,,,0.000000,4.000000,2.000000,4.000000,4.000000,4.000000,83.333336,,,,,,,,,,,,,,,,,,,
1618539659.213411,30.000000,0.000000,4354.871582,4927.179688,4235.897461,4210.769043,4272.820313,0.000000,4.000000,77.000000,,,,0.000000,4.000000,2.000000,4.000000,4.000000,4.000000,83.333336,,,,,,,,15.000000,0.000000,0.667126,0.229004,0.571289,-0.419678,0.958999,0.167971,-0.232914,9.348479,7.477511,14.246799
1618539659.221229,31.000000,0.000000,4348.717773,4916.410156,4232.307617,4195.897461,4264.615234,0.000000,4.000000,77.000000,,,,0.000000,4.000000,2.000000,4.000000,4.000000,4.000000,83.333336,,,,,,,,,,,,,,,,,,,
1618539659.228948,32.000000,0.000000,4354.871582,4901.538574,4237.948730,4189.230957,4264.102539,0.000000,4.000000,77.000000,,,,0.000000,4.000000,2.000000,4.000000,4.000000,4.000000,83.333336,,,,,,,,16.000000,0.000000,0.667488,0.229004,0.571045,-0.419434,0.962417,0.160647,-0.247074,7.576216,5.413822,14.257689
1618539659.236766,33.000000,0.000000,4365.128418,4912.820313,4250.769043,4200.512695,4275.384766,0.000000,4.000000,77.000000,,,,0.000000,4.000000,2.000000,4.000000,4.000000,4.000000,83.333336,,,,,,,,,,,,,,,,,,,
1618539659.244585,34.000000,0.000000,4358.974121,4906.666504,4250.256348,4198.461426,4276.922852,0.000000,4.000000,77.000000,,,,0.000000,4.000000,2.000000,4.000000,4.000000,4.000000,83.333336,,,,,,,,17.000000,0.000000,0.667488,0.229004,0.571045,-0.419434,0.954604,0.163577,-0.238773,6.100810,7.504315,14.147858
1618539659.252403,35.000000,0.000000,4348.717773,4882.051270,4238.974121,4192.307617,4263.077148,0.000000,4.000000,77.000000,,,,0.000000,4.000000,2.000000,4.000000,4.000000,4.000000,83.333336,,,,,,,,,,,,,,,,,,,
1618539659.260222,36.000000,0.000000,4342.563965,4912.307617,4228.205078,4199.487305,4253.333496,0.000000,4.000000,77.000000,,,,0.000000,4.000000,2.000000,4.000000,4.000000,4.000000,83.333336,,,,,,,,18.000000,0.000000,0.667488,0.229004,0.571045,-0.419434,0.958511,0.160159,-0.240726,4.832760,5.497761,14.228456
1618539659.268040,37.000000,0.000000,4342.051270,4936.410156,4217.948730,4207.179688,4258.974121,0.000000,4.000000,77.000000,,,,0.000000,4.000000,2.000000,4.000000,4.000000,4.000000,83.333336,,,,,,,,,,,,,,,,,,,
1618539659.275859,38.000000,0.000000,4345.128418,4900.000000,4214.871582,4200.512695,4256.922852,0.000000,4.000000,77.000000,,,,0.000000,4.000000,2.000000,4.000000,4.000000,4.000000,83.333336,,,,,,,,19.000000,0.000000,0.667488,0.229004,0.571045,-0.419434,0.972671,0.166018,-0.236820,7.459883,3.691863,14.121549
1618539659.283677,39.000000,0.000000,4341.025879,4897.436035,4215.897461,4194.358887,4238.974121,0.000000,4.000000,77.000000,,,,0.000000,4.000000,2.000000,4.000000,4.000000,4.000000,83.333336,,,,,,,,,,,,,,,,,,,
1618539659.291496,40.000000,0.000000,4338.974121,4916.922852,4209.743652,4202.051270,4236.922852,0.000000,4.000000,77.000000,,,,0.000000,4.000000,2.000000,4.000000,4.000000,4.000000,83.333336,,,,,,,,20.000000,0.000000,0.667641,0.229004,0.571045,-0.419189,0.963882,0.159670,-0.242679,4.141834,5.834922,14.264593
1618539659.299214,41.000000,0.000000,4344.615234,4899.487305,4201.538574,4210.769043,4246.666504,0.000000,4.000000,77.000000,,,,0.000000,4.000000,2.000000,4.000000,4.000000,4.000000,83.333336,,,,,,,,,,,,,,,,,,,
1618539659.307033,42.000000,0.000000,4341.025879,4892.307617,4201.538574,4209.230957,4243.589844,0.000000,4.000000,77.000000,,,,0.000000,4.000000,2.000000,4.000000,4.000000,4.000000,83.333336,,,,,,,,21.000000,0.000000,0.667711,0.229248,0.571045,-0.418945,0.963882,0.158206,-0.236332,6.718419,3.935491,14.273703
1618539659.314851,43.000000,0.000000,4336.922852,4909.230957,4213.333496,4210.769043,4242.563965,0.000000,4.000000,77.000000,,,,0.000000,4.000000,2.000000,4.000000,4.000000,4.000000,83.333336,,,,,,,,,,,,,,,,,,,
1618539659.322670,44.000000,0.000000,4342.563965,4909.230957,4225.128418,4209.230957,4249.743652,0.000000,4.000000,77.000000,,,,0.000000,4.000000,2.000000,4.000000,4.000000,4.000000,83.333336,,,,,,,,22.000000,0.000000,0.667711,0.229248,0.571045,-0.418945,0.958999,0.149416,-0.237308,9.216791,2.345635,14.341717
1618539659.330488,45.000000,0.000000,4345.128418,4895.384766,4225.128418,4199.487305,4251.794922,0.000000,4.000000,77.000000,,,,0.000000,4.000000,2.000000,4.000000,4.000000,4.000000,83.333336,,,,,,,,,,,,,,,,,,,
1618539659.338306,46.000000,0.000000,4343.077148,4910.256348,4211.282227,4200.512695,4246.666504,0.000000,4.000000,77.000000,,,,0.000000,4.000000,2.000000,4.000000,4.000000,4.000000,83.333336,,,,,,,,23.000000,0.000000,0.667502,0.229248,0.571289,-0.418945,0.972183,0.156252,-0.237797,5.842682,4.683132,14.343114
1618539659.346125,47.000000,0.000000,4344.102539,4933.333496,4190.256348,4202.563965,4238.974121,0.000000,4.000000,77.000000,,,,0.000000,4.000000,2.000000,4.000000,4.000000,4.000000,83.333336,,,,,,,,,,,,,,,,,,,
1618539659.353943,48.000000,0.000000,4335.384766,4927.179688,4174.871582,4193.333496,4232.820313,0.000000,4.000000,77.000000,,,,0.000000,4.000000,2.000000,4.000000,4.000000,4.000000,83.333336,,,,,,,,24.000000,0.000000,0.667502,0.229248,0.571289,-0.418945,0.965835,0.161624,-0.231449,8.368814,6.786880,14.464002
1618539659.361662,49.000000,0.000000,4323.589844,4902.051270,4176.922852,4197.948730,4234.358887,0.000000,4.000000,77.000000,,,,0.000000,4.000000,2.000000,4.000000,4.000000,4.000000,83.333336,,,,,,,,,,,,,,,,,,,
1618539659.369481,50.000000,0.000000,4328.205078,4893.333496,4196.922852,4217.436035,4240.000000,0.000000,4.000000,77.000000,,,,0.000000,4.000000,2.000000,4.000000,4.000000,4.000000,83.333336,,,,,,,,25.000000,0.000000,0.667418,0.229492,0.571289,-0.418945,0.958999,0.146487,-0.250980,6.814147,4.792253,14.333540
1618539659.377300,51.000000,0.000000,4333.846191,4909.230957,4215.384766,4223.077148,4245.641113,0.000000,4.000000,77.000000,,,,0.000000,4.000000,2.000000,4.000000,4.000000,4.000000,83.333336,,,,,,,,,,,,,,,,,,,
1618539659.385119,52.000000,0.000000,4329.230957,4905.641113,4216.922852,4213.846191,4247.179688,0.000000,4.000000,77.000000,,,,0.000000,4.000000,2.000000,4.000000,4.000000,4.000000,83.333336,,,,,,,,26.000000,0.000000,0.667418,0.229492,0.571289,-0.418945,0.964858,0.153811,-0.240726,5.414948,3.116721,14.275939
1618539659.392938,53.000000,0.000000,4332.820313,4870.256348,4213.846191,4205.641113,4245.128418,0.000000,4.000000,77.000000,,,,0.000000,4.000000,2.000000,4.000000,4.000000,4.000000,83.333336,,,,,,,,,,,,,,,,,,,
1618539659.400757,54.000000,0.000000,4341.538574,4870.769043,4222.051270,4205.641113,4249.230957,0.000000,4.000000,77.000000,,,,0.000000,4.000000,2.000000,4.000000,4.000000,4.000000,83.333336,,,,,,,,27.000000,0.000000,0.667418,0.229492,0.571289,-0.418945,0.960464,0.168948,-0.241703,4.095854,1.608742,14.224098
1618539659.408576,55.000000,0.000000,4347.179688,4906.666504,4232.820313,4209.743652,4266.153809,0.000000,4.000000,77.000000,,,,0.000000,4.000000,2.000000,4.000000,4.000000,4.000000,83.333336,,,,,,,,,,,,,,,,,,,
1618539659.416395,56.000000,0.000000,4353.333496,4906.666504,4236.410156,4211.794922,4280.000000,0.000000,4.000000,77.000000,,,,0.000000,4.000000,2.000000,4.000000,4.000000,4.000000,83.333336,,,,,,,,28.000000,0.000000,0.667418,0.229492,0.571289,-0.418945,0.960464,0.142580,-0.241703,4.703129,0.311375,14.057812
1618539659.424214,57.000000,0.000000,4348.205078,4893.333496,4234.871582,4213.333496,4274.871582,0.000000,4.000000,77.000000,,,,0.000000,4.000000,2.000000,4.000000,4.000000,4.000000,83.333336,,,,,,,,,,,,,,,,,,,
1618539659.432033,58.000000,0.000000,4336.922852,4916.922852,4225.641113,4209.230957,4263.589844,0.000000,4.000000,77.000000,,,,0.000000,4.000000,2.000000,4.000000,4.000000,4.000000,83.333336,,,,,,,,29.000000,0.000000,0.667627,0.229492,0.571045,-0.418945,0.964858,0.166018,-0.240238,5.249678,-0.975885,14.027783
1618539659.439852,59.000000,0.000000,4333.846191,4910.256348,4213.333496,4205.641113,4259.487305,0.000000,4.000000,77.000000,,,,0.000000,4.000000,2.000000,4.000000,4.000000,4.000000,83.333336,,,,,,,,,,,,,,,,,,,
1618539659.447569,60.000000,0.000000,4326.153809,4858.461426,4206.666504,4201.538574,4253.333496,0.000000,4.000000,77.000000,,,,0.000000,4.000000,2.000000,4.000000,4.000000,4.000000,83.333336,,,,,,,,30.000000,0.000000,0.667627,0.229492,0.571045,-0.418945,0.965347,0.159670,-0.243168,1.853572,1.813395,14.060575
1618539659.455386,61.000000,0.000000,4308.205078,4856.410156,4204.102539,4187.692383,4238.974121,0.000000,4.000000,77.000000,,,,0.000000,4.000000,2.000000,4.000000,4.000000,4.000000,83.333336,,,,,,,,,,,,,,,,,,,
1618539659.463203,62.000000,0.000000,4302.051270,4895.897461,4200.000000,4178.974121,4232.820313,0.000000,4.000000,77.000000,,,,0.000000,4.000000,2.000000,4.000000,4.000000,4.000000,83.333336,,,,,,,,31.000000,0.000000,0.667627,0.229492,0.571045,-0.418945,0.960464,0.157717,-0.238285,2.804707,4.144301,14.149900
1618539659.471020,63.000000,0.000000,4313.333496,4889.743652,4203.077148,4185.641113,4236.410156,0.000000,4.000000,77.000000,,,,0.000000,4.000000,2.000000,4.000000,4.000000,4.000000,83.333336,,,,,,,,,,,,,,,,,,,
1618539659.478837,64.000000,0.000000,4319.487305,4870.256348,4208.205078,4189.230957,4242.051270,450.000000,4.000000,77.000000,,,,0.000000,4.000000,2.000000,4.000000,4.000000,4.000000,83.333336,,,,,,,,32.000000,0.000000,0.667418,0.229492,0.571289,-0.418945,0.968765,0.166018,-0.234867,-0.047824,6.242116,14.170480
1618539659.486555,65.000000,0.000000,4316.410156,4902.563965,4207.179688,4185.128418,4247.692383,450.000000,4.000000,77.000000,,,,0.000000,4.000000,2.000000,4.000000,4.000000,4.000000,83.333336,,,,,,,,,,,,,,,,,,,
1618539659.494374,66.000000,0.000000,4319.487305,4928.717773,4210.769043,4190.256348,4251.794922,16236.000000,4.000000,77.000000,,,,0.000000,4.000000,2.000000,4.000000,4.000000,4.000000,83.333336,,,,,,,,33.000000,0.000000,0.667418,0.229492,0.571289,-0.418945,0.963882,0.157717,-0.242679,3.067357,8.189965,14.189000
1618539659.502192,67.000000,0.000000,4328.717773,4895.897461,4215.384766,4203.589844,4253.333496,450.000000,4.000000,77.000000,,,,0.000000,4.000000,2.000000,4.000000,4.000000,4.000000,83.333336,,,,,,,,,,,,,,,,,,,
1618539659.510010,68.000000,0.000000,4329.743652,4871.282227,4210.256348,4204.615234,4243.077148,281.000000,4.000000,77.000000,,,,0.000000,4.000000,2.000000,4.000000,4.000000,4.000000,83.333336,,,,,,,,34.000000,0.000000,0.667627,0.229492,0.571045,-0.418945,0.960464,0.157717,-0.238285,0.188561,9.883214,14.145854
1618539659.517828,69.000000,0.000000,4328.205078,4900.512695,4205.128418,4197.948730,4219.487305,450.000000,4.000000,77.000000,,,,0.000000,4.000000,2.000000,4.000000,4.000000,4.000000,83.333336,,,,,,,,,,,,,,,,,,,
1618539659.525646,70.000000,0.000000,4329.743652,4925.641113,4204.102539,4201.025879,4206.666504,16222.000000,4.000000,77.000000,,,,0.000000,4.000000,2.000000,4.000000,4.000000,4.000000,83.333336,,,,,,,,35.000000,0.000000,0.667418,0.229492,0.571289,-0.418945,0.963882,0.157717,-0.242679,3.280104,11.466953,14.166837
1618539659.533465,71.000000,0.000000,4324.102539,4921.538574,4197.948730,4204.615234,4208.205078,450.000000,4.000000,77.000000,,,,0.000000,4.000000,2.000000,4.000000,4.000000,4.000000,83.333336,,,,,,,,,,,,,,,,,,,
1618539659.541283,72.000000,0.000000,4314.871582,4900.000000,4197.436035,4202.563965,4199.487305,450.000000,4.000000,77.000000,,,,0.000000,4.000000,2.000000,4.000000,4.000000,4.000000,83.333336,,,,,,,,36.000000,0.000000,0.667265,0.229492,0.571289,-0.419189,0.963394,0.159670,-0.241215,4.148401,12.952134,14.125907
1618539659.549101,73.000000,0.000000,4306.153809,4874.871582,4200.000000,4202.563965,4180.000000,16105.000000,4.000000,77.000000,,,,0.000000,4.000000,2.000000,4.000000,4.000000,4.000000,83.333336,,,,,,,,,,,,,,,,,,,
1618539659.556819,74.000000,0.000000,4295.897461,4907.692383,4186.666504,4203.077148,4172.820313,450.000000,4.000000,77.000000,,,,0.000000,4.000000,2.000000,4.000000,4.000000,4.000000,83.333336,,,,,,,,37.000000,0.000000,0.667627,0.229492,0.571045,-0.418945,0.960952,0.141604,-0.235843,4.989683,10.640059,14.029254
1618539659.564636,75.000000,0.000000,4295.897461,4951.282227,4185.128418,4203.589844,4189.743652,16220.000000,4.000000,77.000000,,,,0.000000,4.000000,2.000000,4.000000,4.000000,4.000000,83.333336,,,,,,,,,,,,,,,,,,,
1618539659.572453,76.000000,0.000000,4301.538574,4924.102539,4200.512695,4208.205078,4205.128418,450.000000,4.000000,77.000000,,,,0.000000,4.000000,2.000000,4.000000,4.000000,4.000000,83.333336,,,,,,,,38.000000,0.000000,0.667627,0.229492,0.571045,-0.418945,0.959976,0.166018,-0.236820,1.679393,12.148114,13.942266
1618539659.580270,77.000000,0.000000,4299.487305,4900.000000,4203.077148,4211.282227,4206.666504,450.000000,4.000000,77.000000,,,,0.000000,4.000000,2.000000,4.000000,4.000000,4.000000,83.333336,,,,,,,,,,,,,,,,,,,
1618539659.588088,78.000000,0.000000,4303.077148,4906.666504,4204.615234,4211.794922,4212.307617,450.000000,4.000000,77.000000,,,,0.000000,4.000000,2.000000,4.000000,4.000000,4.000000,83.333336,,,,,,,,39.000000,0.000000,0.667627,0.229492,0.571045,-0.418945,0.968765,0.178714,-0.243656,4.562037,9.736996,13.983609
1618539659.595807,79.000000,0.000000,4316.410156,4902.563965,4210.769043,4205.128418,4225.641113,16220.000000,4.000000,77.000000,,,,0.000000,4.000000,2.000000,4.000000,4.000000,4.000000,83.333336,,,,,,,,,,,,,,,,,,,
1618539659.603626,80.000000,0.000000,4321.538574,4913.846191,4208.205078,4199.487305,4233.846191,450.000000,4.000000,77.000000,,,,0.000000,4.000000,2.000000,4.000000,4.000000,4.000000,83.333336,,,,,,,,40.000000,0.000000,0.667627,0.229492,0.571045,-0.418945,0.963882,0.160159,-0.239261,5.242325,7.267912,14.080632
1618539659.611445,81.000000,0.000000,4319.487305,4925.128418,4206.153809,4213.846191,4240.000000,450.000000,4.000000,77.000000,,,,0.000000,4.000000,2.000000,4.000000,4.000000,4.000000,83.333336,,,,,,,,,,,,,,,,,,,
1618539659.619264,82.000000,0.000000,4322.563965,4911.794922,4209.743652,4220.512695,4243.589844,450.000000,4.000000,77.000000,,,,0.000000,4.000000,2.000000,4.000000,4.000000,4.000000,83.333336,,,,,,,,41.000000,0.000000,0.667627,0.229492,0.571045,-0.418945,0.953140,0.150881,-0.238773,6.093846,5.404629,14.048323
1618539659.627084,83.000000,0.000000,4322.051270,4915.384766,4203.589844,4207.692383,4238.974121,16220.000000,4.000000,77.000000,,,,0.000000,4.000000,2.000000,4.000000,4.000000,4.000000,83.333336,,,,,,,,,,,,,,,,,,,
1618539659.634903,84.000000,0.000000,4309.743652,4921.538574,4195.384766,4204.102539,4235.384766,450.000000,4.000000,77.000000,,,,0.000000,4.000000,2.000000,4.000000,4.000000,4.000000,83.333336,,,,,,,,42.000000,0.000000,0.667627,0.229492,0.571045,-0.418945,0.968277,0.162112,-0.248539,6.620954,7.376411,14.138874
1618539659.642823,85.000000,0.000000,4290.769043,4925.128418,4190.256348,4205.641113,4224.615234,450.000000,4.000000,77.000000,,,,0.000000,4.000000,2.000000,4.000000,4.000000,4.000000,83.333336,,,,,,,,,,,,,,,,,,,
1618539659.650643,86.000000,1.000000,4290.655273,4925.413086,4188.717773,4204.900391,4224.672363,450.000000,4.000000,77.000000,,,,0.000000,4.000000,2.000000,4.000000,4.000000,4.000000,83.333336,,,,,,,,43.000000,1.000000,0.000000,0.229541,0.571094,-0.418994,0.967593,0.162795,0.000000,0.000000,0.000000,0.000000
1618539659.658463,87.000000,1.000000,4290.541504,4925.698242,4187.179688,4204.159668,4224.729492,450.000000,4.000000,77.000000,,,,0.000000,4.000000,2.000000,4.000000,4.000000,4.000000,83.333336,,,,,,,,,,,,,,,,,,,
1618539659.666283,88.000000,1.000000,4290.427246,4925.982910,4185.641113,4203.418945,4224.786133,450.000000,4.000000,77.000000,,,,0.000000,4.000000,2.000000,4.000000,4.000000,4.000000,83.333336,0.835938,83.333336,4.000000,2.000000,4.000000,4.000000,4.000000,44.000000,1.000000,0.000000,0.229590,0.571143,-0.419043,0.966909,0.163479,0.000000,0.000000,0.000000,0.000000
1618539659.674103,89.000000,1.000000,4290.313477,4926.267578,4184.102539,4202.678223,4224.843262,450.000000,4.000000,77.000000,,,,0.000000,4.000000,2.000000,4.000000,4.000000,4.000000,83.333336,,,,,,,,,,,,,,,,,,,
1618539659.681923,90.000000,1.000000,4290.199219,4926.552734,4182.563965,4201.937500,4224.900391,450.000000,4.000000,77.000000,,,,0.000000,4.000000,2.000000,4.000000,4.000000,4.000000,83.333336,,,,,,,,45.000000,1.000000,0.000000,0.229639,0.571191,-0.419092,0.966226,0.164163,0.000000,0.000000,0.000000,0.000000
1618539659.689744,91.000000,1.000000,4290.085449,4926.837402,4181.025879,4201.196777,4224.957031,450.000000,4.000000,77.000000,,,,0.000000,4.000000,2.000000,4.000000,4.000000,4.000000,83.333336,,,,,,,,,,,,,,,,,,,
1618539659.697564,92.000000,1.000000,4289.971680,4927.122559,4179.487305,4200.456055,4225.014160,450.000000,4.000000,77.000000,,,,0.000000,4.000000,2.000000,4.000000,4.000000,4.000000,83.333336,,,,,,,,46.000000,1.000000,0.000000,0.229687,0.571240,-0.419141,0.965542,0.164846,0.000000,0.000000,0.000000,0.000000
1618539659.705384,93.000000,1.000000,4289.857422,4927.407227,4177.948730,4199.715332,4225.071289,450.000000,4.000000,77.000000,,,,0.000000,4.000000,2.000000,4.000000,4.000000,4.000000,83.333336,,,,,,,,,,,,,,,,,,,
1618539659.713204,94.000000,0.000000,4289.743652,4927.692383,4176.410156,4198.974121,4225.128418,450.000000,4.000000,77.000000,,,,0.000000,4.000000,2.000000,4.000000,4.000000,4.000000,83.333336,,,,,,,,47.000000,0.000000,0.667181,0.229736,0.571289,-0.419189,0.964858,0.165530,-0.239261,3.326982,9.210831,14.160556
1618539659.721024,95.000000,0.000000,4284.102539,4942.563965,4188.717773,4196.410156,4216.922852,16220.000000,4.000000,77.000000,,,,0.000000,4.000000,2.000000,4.000000,4.000000,4.000000,83.333336,,,,,,,,,,,,,,,,,,,
1618539659.728844,96.000000,0.000000,4287.692383,4916.410156,4210.256348,4190.256348,4220.000000,450.000000,4.000000,77.000000,,,,0.000000,4.000000,2.000000,4.000000,4.000000,4.000000,83.333336,,,,,,,,48.000000,0.000000,0.667334,0.229736,0.571289,-0.418945,0.967788,0.163088,-0.240238,4.190591,7.033625,14.239884
1618539659.736563,97.000000,0.000000,4290.256348,4900.512695,4217.948730,4192.307617,4227.692383,450.000000,4.000000,77.000000,,,,0.000000,4.000000,2.000000,4.000000,4.000000,4.000000,83.333336,,,,,,,,,,,,,,,,,,,
1618539659.744383,98.000000,0.000000,4288.717773,4903.077148,4211.794922,4188.717773,4227.179688,450.000000,4.000000,77.000000,,,,0.000000,4.000000,2.000000,4.000000,4.000000,4.000000,83.333336,,,,,,,,49.000000,0.000000,0.667334,0.229736,0.571289,-0.418945,0.960464,0.164065,-0.243168,4.848209,4.954509,14.371096
1618539659.752202,99.000000,1.000000,4282.734863,4903.133789,4208.546875,4187.122559,4223.532715,2202.222168,4.000000,77.000000,,,,0.000000,4.000000,2.000000,4.000000,4.000000,4.000000,83.333336,,,,,,,,,,,,,,,,,,,
1618539659.760021,100.000000,1.000000,4276.751953,4903.190918,4205.299316,4185.526855,4219.886230,3954.444336,4.000000,77.000000,,,,0.000000,4.000000,2.000000,4.000000,4.000000,4.000000,83.333336,,,,,,,,50.000000,1.000000,0.000000,0.229687,0.571338,-0.418945,0.962905,0.162991,0.000000,0.000000,0.000000,0.000000
1618539659.767840,101.000000,1.000000,4270.769043,4903.248047,4202.051270,4183.931641,4216.239258,5706.666504,4.000000,77.000000,,,,0.000000,4.000000,2.000000,4.000000,4.000000,4.000000,83.333336,,,,,,,,,,,,,,,,,,,
1618539659.775659,102.000000,1.000000,4264.786133,4903.304688,4198.803223,4182.336426,4212.592773,7458.888672,4.000000,77.000000,,,,0.000000,4.000000,2.000000,4.000000,4.000000,4.000000,83.333336,,,,,,,,51.000000,1.000000,0.000000,0.229639,0.571387,-0.418945,0.965347,0.161917,0.000000,0.000000,0.000000,0.000000
1618539659.783479,103.000000,1.000000,4258.803223,4903.361816,4195.555664,4180.740723,4208.945801,9211.111328,4.000000,77.000000,,,,0.000000,4.000000,2.000000,4.000000,4.000000,4.000000,83.333336,,,,,,,,,,,,,,,,,,,
1618539659.791298,104.000000,1.000000,4252.820313,4903.418945,4192.307617,4179.145508,4205.299316,10963.333008,4.000000,77.000000,,,,0.000000,4.000000,2.000000,4.000000,4.000000,4.000000,83.333336,,,,,,,,52.000000,1.000000,0.000000,0.229590,0.571436,-0.418945,0.967788,0.160842,0.000000,0.000000,0.000000,0.000000
1618539659.799117,105.000000,1.000000,4246.837402,4903.475586,4189.060059,4177.549805,4201.652344,12715.555664,4.000000,77.000000,,,,0.000000,4.000000,2.000000,4.000000,4.000000,4.000000,83.333336,,,,,,,,,,,,,,,,,,,
1618539659.806936,106.000000,1.000000,4240.854492,4903.532715,4185.812012,4175.954590,4198.005859,14467.777344,4.000000,77.000000,,,,0.000000,4.000000,2.000000,4.000000,4.000000,4.000000,83.333336,,,,,,,,53.000000,1.000000,0.000000,0.229541,0.571484,-0.418945,0.970230,0.159768,0.000000,0.000000,0.000000,0.000000
1618539659.814755,107.000000,0.000000,4234.871582,4903.589844,4182.563965,4174.358887,4194.358887,16220.000000,4.000000,77.000000,,,,0.000000,4.000000,2.000000,4.000000,4.000000,4.000000,83.333336,,,,,,,,,,,,,,,,,,,
1618539659.822574,108.000000,0.000000,4235.897461,4920.000000,4188.717773,4175.897461,4193.846191,450.000000,4.000000,77.000000,,,,0.000000,4.000000,2.000000,4.000000,4.000000,4.000000,83.333336,,,,,,,,54.000000,0.000000,0.667209,0.229492,0.571533,-0.418945,0.972671,0.158694,-0.233890,1.671696,7.031119,14.369555
1618539659.830394,109.000000,0.000000,4246.153809,4930.769043,4195.384766,4170.256348,4204.615234,450.000000,4.000000,77.000000,,,,0.000000,4.000000,2.000000,4.000000,4.000000,4.000000,83.333336,,,,,,,,,,,,,,,,,,,
1618539659.838111,110.000000,0.000000,4254.358887,4913.333496,4202.563965,4169.230957,4211.282227,450.000000,4.000000,77.000000,,,,0.000000,4.000000,2.000000,4.000000,4.000000,4.000000,83.333336,,,,,,,,55.000000,0.000000,0.667000,0.229492,0.571777,-0.418945,0.980972,0.159670,-0.239261,4.674741,5.131700,14.368168
1618539659.845928,111.000000,0.000000,4255.384766,4921.538574,4197.436035,4171.794922,4208.717773,16220.000000,4.000000,77.000000,,,,0.000000,4.000000,2.000000,4.000000,4.000000,4.000000,83.333336,,,,,,,,,,,,,,,,,,,
1618539659.853746,112.000000,0.000000,4254.358887,4923.077148,4184.615234,4170.769043,4218.461426,450.000000,4.000000,77.000000,,,,0.000000,4.000000,2.000000,4.000000,4.000000,4.000000,83.333336,,,,,,,,56.000000,0.000000,0.667000,0.229492,0.571777,-0.418945,0.971695,0.171389,-0.231449,7.377481,3.302592,14.366920
1618539659.861563,113.000000,0.000000,4255.384766,4895.897461,4176.922852,4179.487305,4232.307617,450.000000,4.000000,77.000000,,,,0.000000,4.000000,2.000000,4.000000,4.000000,4.000000,83.333336,,,,,,,,,,,,,,,,,,,
1618539659.869282,114.000000,0.000000,4254.358887,4908.205078,4172.820313,4190.256348,4231.282227,450.000000,4.000000,77.000000,,,,0.000000,4.000000,2.000000,4.000000,4.000000,4.000000,83.333336,,,,,,,,57.000000,0.000000,0.667000,0.229492,0.571777,-0.418945,0.963882,0.145998,-0.236332,7.716410,5.544394,14.485428
1618539659.877101,115.000000,0.000000,4256.922852,4950.256348,4179.487305,4195.384766,4223.589844,16220.000000,4.000000,77.000000,,,,0.000000,4.000000,2.000000,4.000000,4.000000,4.000000,83.333336,,,,,,,,,,,,,,,,,,,
1618539659.884920,116.000000,0.000000,4262.563965,4926.666504,4195.384766,4200.000000,4225.128418,450.000000,4.000000,77.000000,,,,0.000000,4.000000,2.000000,4.000000,4.000000,4.000000,83.333336,,,,,,,,58.000000,0.000000,0.667000,0.229492,0.571777,-0.418945,0.958022,0.165042,-0.241703,4.312893,7.502199,14.472453
1618539659.892740,117.000000,0.000000,4256.410156,4895.897461,4202.563965,4198.974121,4222.051270,450.000000,4.000000,77.000000,,,,0.000000,4.000000,2.000000,4.000000,4.000000,4.000000,83.333336,,,,,,,,,,,,,,,,,,,
1618539659.900559,118.000000,0.000000,4246.153809,4927.692383,4204.102539,4197.436035,4211.282227,450.000000,4.000000,77.000000,,,,0.000000,4.000000,2.000000,4.000000,4.000000,4.000000,83.333336,,,,,,,,59.000000,0.000000,0.667000,0.229492,0.571777,-0.418945,0.965835,0.163577,-0.239750,1.249727,9.264225,14.520593
1618539659.908378,119.000000,0.000000,4241.538574,4952.820313,4206.153809,4194.871582,4209.230957,16220.000000,4.000000,77.000000,,,,0.000000,4.000000,2.000000,4.000000,4.000000,4.000000,83.333336,,,,,,,,,,,,,,,,,,,
1618539659.916197,120.000000,0.000000,4238.974121,4922.051270,4204.102539,4186.666504,4213.333496,450.000000,4.000000,77.000000,,,,0.000000,4.000000,2.000000,4.000000,4.000000,4.000000,83.333336,,,,,,,,60.000000,0.000000,0.666790,0.229492,0.572021,-0.418945,0.978531,0.158694,-0.239750,-0.279733,8.449105,14.483279
1618539659.924016,121.000000,0.000000,4240.512695,4897.948730,4199.487305,4188.717773,4214.358887,450.000000,4.000000,77.000000,,,,0.000000,4.000000,2.000000,4.000000,4.000000,4.000000,83.333336,,,,,,,,,,,,,,,,,,,
1618539659.931936,122.000000,0.000000,4245.641113,4928.717773,4196.410156,4192.820313,4211.794922,450.000000,4.000000,77.000000,,,,0.000000,4.000000,2.000000,4.000000,4.000000,4.000000,83.333336,,,,,,,,61.000000,0.000000,0.666944,0.229492,0.572021,-0.418701,0.970230,0.156741,-0.229984,-1.208805,6.348072,14.530335
1618539659.939755,123.000000,0.000000,4251.282227,4925.128418,4196.410156,4188.205078,4209.743652,16220.000000,4.000000,77.000000,,,,0.000000,4.000000,2.000000,4.000000,4.000000,4.000000,83.333336,,,,,,,,,,,,,,,,,,,
1618539659.947575,124.000000,0.000000,4253.333496,4887.179688,4188.205078,4189.230957,4207.179688,450.000000,4.000000,77.000000,,,,0.000000,4.000000,2.000000,4.000000,4.000000,4.000000,83.333336,,,,,,,,62.000000,0.000000,0.666944,0.229492,0.572021,-0.418701,0.956069,0.161624,-0.242191,-1.745894,4.397326,14.393240
1618539659.955395,125.000000,0.000000,4249.230957,4911.794922,4173.846191,4195.897461,4208.717773,450.000000,4.000000,77.000000,,,,0.000000,4.000000,2.000000,4.000000,4.000000,4.000000,83.333336,,,,,,,,,,,,,,,,,,,
1618539659.963214,126.000000,0.000000,4235.384766,4964.102539,4165.128418,4195.384766,4206.666504,450.000000,4.000000,77.000000,,,,0.000000,4.000000,2.000000,4.000000,4.000000,4.000000,83.333336,,,,,,,,63.000000,0.000000,0.667153,0.229492,0.571777,-0.418701,0.972183,0.170413,-0.230961,1.598910,2.581841,14.329669
1618539659.971034,127.000000,0.000000,4217.436035,4955.384766,4168.717773,4188.205078,4187.179688,239.000000,4.000000,77.000000,,,,0.000000,4.000000,2.000000,4.000000,4.000000,4.000000,83.333336,,,,,,,,,,,,,,,,,,,
1618539659.978854,0.000000,0.000000,4210.256348,4910.256348,4181.538574,4175.384766,4164.615234,450.000000,4.000000,77.000000,,,,0.000000,4.000000,2.000000,4.000000,4.000000,4.000000,83.333336,,,,,,,,0.000000,0.000000,0.667153,0.229492,0.571777,-0.418701,0.962905,0.152346,-0.224613,2.515696,1.007718,14.332271
1618539659.986673,1.000000,0.000000,4207.179688,4895.384766,4190.769043,4158.974121,4148.205078,450.000000,4.000000,77.000000,,,,0.000000,4.000000,2.000000,4.000000,4.000000,4.000000,83.333336,,,,,,,,,,,,,,,,,,,
1618539659.994593,2.000000,1.000000,4204.273438,4894.074219,4189.116699,4161.196777,4146.381836,16236.000000,4.000000,77.000000,,,,0.000000,4.000000,2.000000,4.000000,4.000000,4.000000,83.333336,,,,,,,,1.000000,1.000000,0.000000,0.229541,0.571777,-0.418652,0.965542,0.154983,0.000000,0.000000,0.000000,0.000000
1618539660.002414,3.000000,1.000000,4201.367676,4892.763672,4187.464355,4163.418945,4144.558594,450.000000,4.000000,77.000000,,,,0.000000,4.000000,2.000000,4.000000,4.000000,4.000000,83.333336,,,,,,,,,,,,,,,,,,,
1618539660.010234,4.000000,1.000000,4198.461426,4891.453125,4185.812012,4165.641113,4142.734863,281.000000,4.000000,77.000000,,,,0.000000,4.000000,2.000000,4.000000,4.000000,4.000000,83.333336,,,,,,,,2.000000,1.000000,0.000000,0.229590,0.571777,-0.418604,0.968179,0.157620,0.000000,0.000000,0.000000,0.000000
1618539660.018054,5.000000,1.000000,4195.555664,4890.142578,4184.159668,4167.863281,4140.911621,450.000000,4.000000,77.000000,,,,0.000000,4.000000,2.000000,4.000000,4.000000,4.000000,83.333336,,,,,,,,,,,,,,,,,,,
1618539660.025874,6.000000,1.000000,4192.649414,4888.832031,4182.507324,4170.085449,4139.088379,16222.000000,4.000000,77.000000,,,,0.000000,4.000000,2.000000,4.000000,4.000000,4.000000,83.333336,,,,,,,,3.000000,1.000000,0.000000,0.229639,0.571777,-0.418555,0.970816,0.160256,0.000000,0.000000,0.000000,0.000000
1618539660.033694,7.000000,1.000000,4189.743652,4887.521484,4180.854492,4172.307617,4137.265137,450.000000,4.000000,77.000000,,,,0.000000,4.000000,2.000000,4.000000,4.000000,4.000000,83.333336,,,,,,,,,,,,,,,,,,,
1618539660.041514,8.000000,1.000000,4186.837402,4886.210938,4179.202148,4174.529785,4135.441406,450.000000,4.000000,77.000000,,,,0.000000,4.000000,2.000000,4.000000,4.000000,4.000000,83.333336,,,,,,,,4.000000,1.000000,0.000000,0.229687,0.571777,-0.418506,0.973452,0.162893,0.000000,0.000000,0.000000,0.000000
1618539660.049334,9.000000,1.000000,4183.931641,4884.900391,4177.549805,4176.751953,4133.618164,16105.000000,4.000000,77.000000,,,,0.000000,4.000000,2.000000,4.000000,4.000000,4.000000,83.333336,,,,,,,,,,,,,,,,,,,
1618539660.057154,10.000000,0.000000,4181.025879,4883.589844,4175.897461,4178.974121,4131.794922,450.000000,4.000000,77.000000,,,,0.000000,4.000000,2.000000,4.000000,4.000000,4.000000,83.333336,,,,,,,,5.000000,0.000000,0.667222,0.229736,0.571777,-0.418457,0.976089,0.165530,-0.236332,3.400618,-0.229545,14.214982
1618539660.064975,11.000000,0.000000,4178.461426,4926.153809,4185.128418,4172.820313,4133.333496,16164.000000,4.000000,77.000000,,,,0.000000,4.000000,2.000000,4.000000,4.000000,4.000000,83.333336,,,,,,,,,,,,,,,,,,,
1618539660.072795,12.000000,0.000000,4178.974121,4954.871582,4191.794922,4156.922852,4133.846191,450.000000,4.000000,77.000000,,,,0.000000,4.000000,2.000000,4.000000,4.000000,4.000000,83.333336,,,,,,,,6.000000,0.000000,0.667222,0.229736,0.571777,-0.418457,0.971206,0.158206,-0.245121,0.488495,2.186024,14.288868
1618539660.080615,13.000000,0.000000,4176.410156,4905.641113,4199.487305,4166.666504,4128.717773,450.000000,4.000000,77.000000,,,,0.000000,4.000000,2.000000,4.000000,4.000000,4.000000,83.333336,,,,,,,,,,,,,,,,,,,
1618539660.088435,14.000000,0.000000,4165.128418,4891.794922,4195.897461,4171.794922,4113.333496,450.000000,4.000000,77.000000,,,,0.000000,4.000000,2.000000,4.000000,4.000000,4.000000,83.333336,,,,,,,,7.000000,0.000000,0.667222,0.229736,0.571777,-0.418457,0.969253,0.161135,-0.242191,-0.278139,0.771114,14.355365
1618539660.096255,15.000000,0.000000,4154.871582,4932.307617,4176.922852,4152.307617,4108.205078,16164.000000,4.000000,77.000000,,,,0.000000,4.000000,2.000000,4.000000,4.000000,4.000000,83.333336,,,,,,,,,,,,,,,,,,,
1618539660.104075,16.000000,0.000000,4153.846191,4930.256348,4169.743652,4150.769043,4122.563965,0.000000,4.000000,77.000000,,,,0.000000,4.000000,2.000000,4.000000,4.000000,4.000000,83.333336,,,,,,,,8.000000,0.000000,0.667375,0.229736,0.571777,-0.418213,0.964858,0.166506,-0.235843,0.886167,-0.442489,14.235766
1618539660.111895,17.000000,0.000000,4156.410156,4898.461426,4180.512695,4163.589844,4128.205078,0.000000,4.000000,77.000000,,,,0.000000,4.000000,2.000000,4.000000,4.000000,4.000000,83.333336,,,,,,,,,,,,,,,,,,,
1618539660.119613,18.000000,0.000000,4153.846191,4916.410156,4180.512695,4151.794922,4119.487305,0.000000,4.000000,77.000000,,,,0.000000,4.000000,2.000000,4.000000,4.000000,4.000000,83.333336,,,,,,,,9.000000,0.000000,0.667375,0.229736,0.571777,-0.418213,0.972183,0.171878,-0.244633,0.019951,-1.773994,14.307574
1618539660.127430,19.000000,0.000000,4153.333496,4930.769043,4172.307617,4137.436035,4118.974121,0.000000,4.000000,77.000000,,,,0.000000,4.000000,2.000000,4.000000,4.000000,4.000000,83.333336,,,,,,,,,,,,,,,,,,,
1618539660.135248,20.000000,0.000000,4165.128418,4888.205078,4174.358887,4145.641113,4127.692383,0.000000,4.000000,77.000000,,,,0.000000,4.000000,2.000000,4.000000,4.000000,4.000000,83.333336,,,,,,,,10.000000,0.000000,0.667375,0.229736,0.571777,-0.418213,0.967788,0.156741,-0.238773,-2.733551,0.915651,14.372201
1618539660.143066,21.000000,0.000000,4173.846191,4877.948730,4175.897461,4162.051270,4132.820313,0.000000,4.000000,77.000000,,,,0.000000,4.000000,2.000000,4.000000,4.000000,4.000000,83.333336,,,,,,,,,,,,,,,,,,,
1618539660.150883,22.000000,0.000000,4165.641113,4922.563965,4167.179688,4173.333496,4134.871582,0.000000,4.000000,77.000000,,,,0.000000,4.000000,2.000000,4.000000,4.000000,4.000000,83.333336,,,,,,,,11.000000,0.000000,0.667375,0.229736,0.571777,-0.418213,0.962417,0.147951,-0.229496,-1.263889,-0.432037,14.370549
1618539660.158701,23.000000,0.000000,4158.974121,4938.461426,4172.820313,4164.102539,4137.436035,0.000000,4.000000,77.000000,,,,0.000000,4.000000,2.000000,4.000000,4.000000,4.000000,83.333336,,,,,,,,,,,,,,,,,,,
1618539660.166518,24.000000,0.000000,4156.410156,4904.615234,4184.615234,4149.743652,4136.410156,0.000000,4.000000,77.000000,,,,0.000000,4.000000,2.000000,4.000000,4.000000,4.000000,83.333336,0.785156,83.333336,4.000000,2.000000,4.000000,4.000000,4.000000,12.000000,0.000000,0.667584,0.229736,0.571533,-0.418213,0.963394,0.154788,-0.233402,0.178438,2.243043,14.488694
1618539660.174336,25.000000,0.000000,4146.666504,4884.615234,4174.871582,4142.563965,4124.102539,0.000000,4.000000,77.000000,,,,0.000000,4.000000,2.000000,4.000000,4.000000,4.000000,83.333336,,,,,,,,,,,,,,,,,,,
1618539660.182153,26.000000,0.000000,4138.461426,4912.820313,4164.615234,4127.692383,4110.256348,0.000000,4.000000,77.000000,,,,0.000000,4.000000,2.000000,4.000000,4.000000,4.000000,83.333336,,,,,,,,13.000000,0.000000,0.667584,0.229736,0.571533,-0.418213,0.958511,0.167971,-0.234867,1.237271,4.471169,14.475393
1618539660.189871,27.000000,0.000000,4132.820313,4942.563965,4170.256348,4118.461426,4108.205078,0.000000,4.000000,77.000000,,,,0.000000,4.000000,2.000000,4.000000,4.000000,4.000000,83.333336,,,,,,,,,,,,,,,,,,,
1618539660.197689,28.000000,0.000000,4125.641113,4915.897461,4174.871582,4134.871582,4115.897461,0.000000,4.000000,77.000000,,,,0.000000,4.000000,2.000000,4.000000,4.000000,4.000000,83.333336,,,,,,,,14.000000,0.000000,0.667584,0.229736,0.571533,-0.418213,0.961440,0.165530,-0.248051,2.010774,6.655928,14.463423
1618539660.205506,29.000000,0.000000,4119.487305,4876.922852,4167.179688,4147.179688,4117.948730,0.000000,4.000000,77.000000,,,,0.000000,4.000000,2.000000,4.000000,4.000000,4.000000,83.333336,,,,,,,,,,,,,,,,,,,
1618539660.213324,30.000000,0.000000,4113.333496,4912.307617,4154.358887,4133.333496,4105.641113,0.000000,4.000000,77.000000,,,,0.000000,4.000000,2.000000,4.000000,4.000000,4.000000,83.333336,,,,,,,,15.000000,0.000000,0.667584,0.229736,0.571533,-0.418213,0.974624,0.153811,-0.244144,0.972282,8.502581,14.512465
1618539660.221142,31.000000,0.000000,4111.794922,4939.487305,4151.282227,4126.153809,4094.871826,0.000000,4.000000,77.000000,,,,0.000000,4.000000,2.000000,4.000000,4.000000,4.000000,83.333336,,,,,,,,,,,,,,,,,,,
1618539660.228960,32.000000,0.000000,4113.333496,4878.461426,4152.820313,4141.025879,4100.512695,0.000000,4.000000,77.000000,,,,0.000000,4.000000,2.000000,4.000000,4.000000,4.000000,83.333336,,,,,,,,16.000000,0.000000,0.667431,0.229736,0.571533,-0.418457,0.968765,0.165530,-0.232425,0.037639,6.456015,14.436972
1618539660.236777,33.000000,0.000000,4101.538574,4854.871582,4148.717773,4156.922852,4103.077148,0.000000,4.000000,77.000000,,,,0.000000,4.000000,2.000000,4.000000,4.000000,4.000000,83.333336,,,,,,,,,,,,,,,,,,,
1618539660.244595,34.000000,0.000000,4080.512939,4921.025879,4146.153809,4151.794922,4089.743652,0.000000,4.000000,77.000000,,,,0.000000,4.000000,2.000000,4.000000,4.000000,4.000000,83.333336,,,,,,,,17.000000,0.000000,0.667640,0.229736,0.571289,-0.418457,0.958999,0.164553,-0.235843,-2.358740,8.322659,14.488659
1618539660.252313,35.000000,0.000000,4073.333252,4934.871582,4151.282227,4134.871582,4081.538574,0.000000,4.000000,77.000000,,,,0.000000,4.000000,2.000000,4.000000,4.000000,4.000000,83.333336,,,,,,,,,,,,,,,,,,,
1618539660.260130,36.000000,0.000000,4076.410156,4894.871582,4158.461426,4129.743652,4088.718018,0.000000,4.000000,77.000000,,,,0.000000,4.000000,2.000000,4.000000,4.000000,4.000000,83.333336,,,,,,,,18.000000,0.000000,0.667640,0.229736,0.571289,-0.418457,0.977554,0.156741,-0.240238,-0.866743,6.174455,14.415546
1618539660.267948,37.000000,0.000000,4073.333252,4907.179688,4168.717773,4124.102539,4088.205078,0.000000,4.000000,77.000000,,,,0.000000,4.000000,2.000000,4.000000,4.000000,4.000000,83.333336,,,,,,,,,,,,,,,,,,,
1618539660.275765,38.000000,0.000000,4067.179443,4915.897461,4179.487305,4115.384766,4079.487061,0.000000,4.000000,77.000000,,,,0.000000,4.000000,2.000000,4.000000,4.000000,4.000000,83.333336,,,,,,,,19.000000,0.000000,0.667640,0.229736,0.571289,-0.418457,0.968277,0.156741,-0.226078,-3.411945,8.248701,14.469376
1618539660.283583,39.000000,0.000000,4073.333252,4890.769043,4185.128418,4126.153809,4090.769287,0.000000,4.000000,77.000000,,,,0.000000,4.000000,2.000000,4.000000,4.000000,4.000000,83.333336,,,,,,,,,,,,,,,,,,,
1618539660.291400,40.000000,0.000000,4081.025635,4907.692383,4194.871582,4148.205078,4114.358887,0.000000,4.000000,77.000000,,,,0.000000,4.000000,2.000000,4.000000,4.000000,4.000000,83.333336,,,,,,,,20.000000,0.000000,0.667640,0.229736,0.571289,-0.418457,0.975601,0.166995,-0.242679,0.099464,6.107893,14.338376
1618539660.299218,41.000000,0.000000,4072.820557,4923.589844,4198.974121,4148.717773,4112.307617,0.000000,4.000000,77.000000,,,,0.000000,4.000000,2.000000,4.000000,4.000000,4.000000,83.333336,,,,,,,,,,,,,,,,,,,
1618539660.306935,42.000000,0.000000,4060.000000,4890.256348,4181.538574,4133.333496,4089.230713,0.000000,4.000000,77.000000,,,,0.000000,4.000000,2.000000,4.000000,4.000000,4.000000,83.333336,,,,,,,,21.000000,0.000000,0.667640,0.229736,0.571289,-0.418457,0.961440,0.163577,-0.234379,1.285825,8.128980,14.280293
1618539660.314751,43.000000,0.000000,4053.333252,4902.563965,4156.922852,4122.051270,4081.025635,0.000000,4.000000,77.000000,,,,0.000000,4.000000,2.000000,4.000000,4.000000,4.000000,83.333336,,,,,,,,,,,,,,,,,,,
1618539660.322568,44.000000,0.000000,4042.564209,4937.436035,4142.563965,4116.922852,4080.000000,0.000000,4.000000,77.000000,,,,0.000000,4.000000,2.000000,4.000000,4.000000,4.000000,83.333336,,,,,,,,22.000000,0.000000,0.667877,0.229492,0.571289,-0.418213,0.959487,0.164065,-0.242679,2.353550,6.000144,14.228016
1618539660.330385,45.000000,0.000000,4031.794922,4892.820313,4144.102539,4122.051270,4066.153809,0.000000,4.000000,77.000000,,,,0.000000,4.000000,2.000000,4.000000,4.000000,4.000000,83.333336,,,,,,,,,,,,,,,,,,,
1618539660.338202,46.000000,0.000000,4026.666748,4851.282227,4152.307617,4121.025879,4052.820557,0.000000,4.000000,77.000000,,,,0.000000,4.000000,2.000000,4.000000,4.000000,4.000000,83.333336,,,,,,,,23.000000,0.000000,0.667877,0.229492,0.571289,-0.418213,0.958022,0.152834,-0.245609,3.254687,8.091821,14.360415
1618539660.345920,47.000000,0.000000,4015.897461,4879.487305,4153.846191,4107.692383,4043.589844,0.000000,4.000000,77.000000,,,,0.000000,4.000000,2.000000,4.000000,4.000000,4.000000,83.333336,,,,,,,,,,,,,,,,,,,
1618539660.353737,48.000000,0.000000,4008.718018,4900.512695,4156.410156,4116.922852,4035.384521,0.000000,4.000000,77.000000,,,,0.000000,4.000000,2.000000,4.000000,4.000000,4.000000,83.333336,,,,,,,,24.000000,0.000000,0.667877,0.229492,0.571289,-0.418213,0.954116,0.158206,-0.225589,6.039617,6.086331,14.359941
1618539660.361555,49.000000,0.000000,4014.871826,4890.256348,4173.846191,4140.000000,4032.307617,0.000000,4.000000,77.000000,,,,0.000000,4.000000,2.000000,4.000000,4.000000,4.000000,83.333336,,,,,,,,,,,,,,,,,,,
1618539660.369373,50.000000,0.000000,4018.974365,4886.153809,4190.769043,4144.102539,4034.871826,0.000000,4.000000,77.000000,,,,0.000000,4.000000,2.000000,4.000000,4.000000,4.000000,83.333336,,,,,,,,25.000000,0.000000,0.667877,0.229492,0.571289,-0.418213,0.963394,0.151369,-0.251469,6.631963,4.101945,14.419332
1618539660.377191,51.000000,0.000000,4011.281982,4905.641113,4188.205078,4143.077148,4034.871826,0.000000,4.000000,77.000000,,,,0.000000,4.000000,2.000000,4.000000,4.000000,4.000000,83.333336,,,,,,,,,,,,,,,,,,,
1618539660.385008,52.000000,0.000000,4007.179443,4912.307617,4182.051270,4143.589844,4035.897461,0.000000,4.000000,77.000000,,,,0.000000,4.000000,2.000000,4.000000,4.000000,4.000000,83.333336,,,,,,,,26.000000,0.000000,0.667877,0.229492,0.571289,-0.418213,0.969253,0.154788,-0.231449,3.277075,6.144180,14.472782
1618539660.392826,53.000000,0.000000,4010.256348,4876.410156,4181.538574,4131.794922,4046.153809,0.000000,4.000000,77.000000,,,,0.000000,4.000000,2.000000,4.000000,4.000000,4.000000,83.333336,,,,,,,,,,,,,,,,,,,
1618539660.400545,54.000000,0.000000,4008.205078,4877.948730,4173.846191,4121.025879,4053.846191,0.000000,4.000000,77.000000,,,,0.000000,4.000000,2.000000,4.000000,4.000000,4.000000,83.333336,,,,,,,,27.000000,0.000000,0.667877,0.229492,0.571289,-0.418213,0.960464,0.154788,-0.234867,6.179397,4.094193,14.461073
1618539660.408363,55.000000,0.000000,4000.512939,4924.102539,4163.077148,4121.025879,4049.230713,0.000000,4.000000,77.000000,,,,0.000000,4.000000,2.000000,4.000000,4.000000,4.000000,83.333336,,,,,,,,,,,,,,,,,,,
1618539660.416182,56.000000,0.000000,3998.461426,4902.563965,4163.589844,4117.436035,4042.564209,0.000000,4.000000,77.000000,,,,0.000000,4.000000,2.000000,4.000000,4.000000,4.000000,83.333336,,,,,,,,28.000000,0.000000,0.667877,0.229492,0.571289,-0.418213,0.968765,0.150881,-0.238285,2.809951,6.316650,14.510350
1618539660.424000,57.000000,0.000000,4000.000000,4856.922852,4169.230957,4121.538574,4042.564209,0.000000,4.000000,77.000000,,,,0.000000,4.000000,2.000000,4.000000,4.000000,4.000000,83.333336,,,,,,,,,,,,,,,,,,,
1618539660.431819,58.000000,0.000000,4003.589844,4878.461426,4173.333496,4140.000000,4046.666748,0.000000,4.000000,77.000000,,,,0.000000,4.000000,2.000000,4.000000,4.000000,4.000000,83.333336,,,,,,,,29.000000,0.000000,0.667668,0.229492,0.571533,-0.418213,0.981460,0.159182,-0.237797,3.785078,4.369047,14.494884
1618539660.439637,59.000000,0.000000,4009.743652,4910.256348,4176.410156,4153.333496,4046.666748,0.000000,4.000000,77.000000,,,,0.000000,4.000000,2.000000,4.000000,4.000000,4.000000,83.333336,,,,,,,,,,,,,,,,,,,
1618539660.447455,60.000000,0.000000,4005.641113,4884.102539,4173.846191,4146.153809,4040.000000,0.000000,4.000000,77.000000,,,,0.000000,4.000000,2.000000,4.000000,4.000000,4.000000,83.333336,,,,,,,,30.000000,0.000000,0.667584,0.229736,0.571533,-0.418213,0.976577,0.166506,-0.245609,4.662693,2.556389,14.540779
1618539660.455274,61.000000,0.000000,3990.256348,4865.641113,4167.179688,4127.692383,4026.666748,0.000000,4.000000,77.000000,,,,0.000000,4.000000,2.000000,4.000000,4.000000,4.000000,83.333336,,,,,,,,,,,,,,,,,,,
1618539660.463092,62.000000,0.000000,3977.435791,4904.102539,4164.102539,4124.615234,4013.846191,0.000000,4.000000,77.000000,,,,0.000000,4.000000,2.000000,4.000000,4.000000,4.000000,83.333336,,,,,,,,31.000000,0.000000,0.667737,0.229736,0.571533,-0.417969,0.958022,0.151369,-0.245609,5.392731,4.753180,14.462455
1618539660.470811,63.000000,0.000000,3966.153809,4898.461426,4157.948730,4136.922852,4010.256348,0.000000,4.000000,77.000000,,,,0.000000,4.000000,4.000000,4.000000,4.000000,4.000000,100.000000,,,,,,,,,,,,,,,,,,,
1618539660.478630,64.000000,0.000000,3953.333252,4856.410156,4150.769043,4133.333496,4011.794922,450.000000,4.000000,77.000000,,,,0.000000,4.000000,4.000000,4.000000,4.000000,4.000000,100.000000,,,,,,,,32.000000,0.000000,0.667668,0.229492,0.571533,-0.418213,0.981460,0.159182,-0.237797,2.221582,6.849923,14.391963
1618539660.486449,65.000000,0.000000,3946.666748,4883.077148,4151.282227,4116.410156,4002.564209,450.000000,4.000000,77.000000,,,,0.000000,4.000000,4.000000,4.000000,4.000000,4.000000,100.000000,,,,,,,,,,,,,,,,,,,
1618539660.494267,66.000000,0.000000,3937.435791,4920.000000,4155.384766,4105.128418,4000.512939,16271.000000,4.000000,77.000000,,,,0.000000,4.000000,4.000000,4.000000,4.000000,4.000000,100.000000,,,,,,,,33.000000,0.000000,0.667737,0.229736,0.571533,-0.417969,0.958022,0.151369,-0.245609,3.195731,8.617360,14.328520
1618539660.502086,67.000000,0.000000,3924.615479,4885.128418,4163.077148,4104.102539,4028.205078,450.000000,4.000000,77.000000,,,,0.000000,4.000000,4.000000,4.000000,4.000000,4.000000,100.000000,,,,,,,,,,,,,,,,,,,
1618539660.509905,68.000000,0.000000,3924.102539,4868.205078,4180.000000,4107.179688,4053.333252,16142.000000,4.000000,77.000000,,,,0.000000,4.000000,4.000000,4.000000,4.000000,4.000000,100.000000,,,,,,,,34.000000,0.000000,0.667737,0.229736,0.571533,-0.417969,0.968765,0.165530,-0.234867,4.132281,6.619133,14.271421
1618539660.517723,69.000000,0.000000,3931.794922,4912.307617,4187.179688,4109.743652,4061.025635,450.000000,4.000000,77.000000,,,,0.000000,4.000000,4.000000,4.000000,4.000000,4.000000,100.000000,,,,,,,,,,,,,,,,,,,
1618539660.525643,70.000000,0.000000,3931.281982,4897.436035,4177.948730,4108.717773,4066.153809,16242.000000,4.000000,77.000000,,,,0.000000,4.000000,4.000000,4.000000,4.000000,4.000000,100.000000,,,,,,,,35.000000,0.000000,0.667653,0.229980,0.571533,-0.417969,0.965835,0.163088,-0.238773,1.027361,8.529280,14.220033
1618539660.533462,71.000000,0.000000,3925.128174,4838.461426,4169.743652,4107.179688,4063.589844,450.000000,4.000000,77.000000,,,,0.000000,4.000000,4.000000,4.000000,4.000000,4.000000,100.000000,,,,,,,,,,,,,,,,,,,
1618539660.541282,72.000000,0.000000,3928.718018,4866.666504,4167.179688,4114.871582,4056.923096,450.000000,4.000000,77.000000,,,,0.000000,4.000000,4.000000,4.000000,4.000000,4.000000,100.000000,,,,,,,,36.000000,0.000000,0.667806,0.229980,0.571533,-0.417725,0.966812,0.150881,-0.249027,2.061117,6.539860,14.413044
1618539660.549101,73.000000,0.000000,3938.974365,4911.794922,4158.974121,4120.512695,4063.076904,16151.000000,4.000000,77.000000,,,,0.000000,4.000000,4.000000,4.000000,4.000000,4.000000,100.000000,,,,,,,,,,,,,,,,,,,
1618539660.556920,74.000000,0.000000,3933.333252,4876.410156,4150.256348,4115.384766,4062.051270,450.000000,4.000000,77.000000,,,,0.000000,4.000000,4.000000,4.000000,4.000000,4.000000,100.000000,,,,,,,,37.000000,0.000000,0.667597,0.229980,0.571777,-0.417725,0.961440,0.152346,-0.233890,3.051312,8.517750,14.467124
1618539660.564740,75.000000,0.000000,3911.794922,4854.871582,4148.717773,4117.436035,4041.538574,16211.000000,4.000000,77.000000,,,,0.000000,4.000000,4.000000,4.000000,4.000000,4.000000,100.000000,,,,,,,,,,,,,,,,,,,
1618539660.572559,76.000000,0.000000,3900.512939,4886.666504,4152.820313,4118.974121,4033.846191,450.000000,4.000000,77.000000,,,,0.000000,4.000000,4.000000,4.000000,4.000000,4.000000,100.000000,,,,,,,,38.000000,0.000000,0.667597,0.229980,0.571777,-0.417725,0.965347,0.150393,-0.223148,5.856580,6.409853,14.455980
1618539660.580379,77.000000,0.000000,3903.589844,4872.307617,4170.256348,4107.692383,4045.128174,450.000000,4.000000,77.000000,,,,0.000000,4.000000,4.000000,4.000000,4.000000,4.000000,100.000000,,,,,,,,,,,,,,,,,,,
1618539660.588198,78.000000,0.000000,3914.358887,4851.282227,4192.820313,4110.256348,4056.923096,450.000000,4.000000,77.000000,,,,0.000000,4.000000,4.000000,4.000000,4.000000,4.000000,100.000000,,,,,,,,39.000000,0.000000,0.667681,0.229736,0.571777,-0.417725,0.960952,0.153811,-0.228519,6.467229,4.452929,14.565582
1618539660.596118,79.000000,0.000000,3926.153809,4897.436035,4192.820313,4123.589844,4065.128174,16211.000000,4.000000,77.000000,,,,0.000000,4.000000,4.000000,4.000000,4.000000,4.000000,100.000000,,,,,,,,,,,,,,,,,,,
1618539660.603937,80.000000,0.000000,3930.256348,4915.384766,4176.922852,4104.102539,4073.846191,450.000000,4.000000,77.000000,,,,0.000000,4.000000,4.000000,4.000000,4.000000,4.000000,100.000000,,,,,,,,40.000000,0.000000,0.667681,0.229736,0.571777,-0.417725,0.977066,0.153811,-0.240238,7.016814,2.871144,14.783854
1618539660.611757,81.000000,0.000000,3936.410156,4876.410156,4174.871582,4071.281982,4080.000000,450.000000,4.000000,77.000000,,,,0.000000,4.000000,4.000000,4.000000,4.000000,4.000000,100.000000,,,,,,,,,,,,,,,,,,,
1618539660.619577,82.000000,0.000000,3943.076904,4866.666504,4178.461426,4071.794922,4073.846191,450.000000,4.000000,77.000000,,,,0.000000,4.000000,4.000000,4.000000,4.000000,4.000000,100.000000,,,,,,,,41.000000,0.000000,0.667528,0.229736,0.571777,-0.417969,0.962905,0.158206,-0.242679,3.683256,5.275722,14.800853
1618539660.627396,83.000000,0.000000,3940.512939,4889.230957,4172.307617,4081.025635,4060.512939,16211.000000,4.000000,77.000000,,,,0.000000,4.000000,4.000000,4.000000,4.000000,4.000000,100.000000,,,,,,,,,,,,,,,,,,,
1618539660.635216,84.000000,0.000000,3934.358887,4868.717773,4165.641113,4069.743652,4039.487061,450.000000,4.000000,77.000000,,,,0.000000,4.000000,4.000000,4.000000,4.000000,4.000000,100.000000,,,,,,,,42.000000,0.000000,0.667612,0.229492,0.571777,-0.417969,0.971695,0.159182,-0.237797,4.571054,7.499656,14.816152
1618539660.643035,85.000000,0.000000,3931.794922,4843.589844,4165.641113,4064.615479,4000.000000,450.000000,4.000000,77.000000,,,,0.000000,4.000000,4.000000,4.000000,4.000000,4.000000,100.000000,,,,,,,,,,,,,,,,,,,
1618539660.650855,86.000000,0.000000,3932.307617,4876.922852,4175.384766,4078.974365,3965.641113,450.000000,4.000000,77.000000,,,,0.000000,4.000000,4.000000,4.000000,4.000000,4.000000,100.000000,,,,,,,,43.000000,0.000000,0.667459,0.229492,0.571777,-0.418213,0.967788,0.145998,-0.229984,5.250440,5.373937,14.710290
1618539660.658675,87.000000,0.000000,3933.846191,4891.794922,4185.128418,4082.051270,3955.897461,16211.000000,4.000000,77.000000,,,,0.000000,4.000000,4.000000,4.000000,4.000000,4.000000,100.000000,,,,,,,,,,,,,,,,,,,
1618539660.666594,88.000000,0.000000,3940.512939,4860.000000,4184.102539,4071.281982,3958.461426,450.000000,4.000000,77.000000,,,,0.000000,4.000000,4.000000,4.000000,4.000000,4.000000,100.000000,0.843750,75.000000,3.000000,2.000000,4.000000,4.000000,4.000000,44.000000,0.000000,0.667459,0.229492,0.571777,-0.418213,0.979507,0.150881,-0.238773,3.947796,3.520605,14.674829
1618539660.674414,89.000000,0.000000,3951.794922,4853.846191,4178.974121,4076.923096,3966.666748,450.000000,4.000000,77.000000,,,,0.000000,4.000000,4.000000,4.000000,4.000000,4.000000,100.000000,,,,,,,,,,,,,,,,,,,
1618539660.682234,90.000000,0.000000,3959.487061,4872.820313,4178.461426,4087.179443,3974.358887,450.000000,4.000000,77.000000,,,,0.000000,4.000000,4.000000,4.000000,4.000000,4.000000,100.000000,,,,,,,,45.000000,0.000000,0.667459,0.229492,0.571777,-0.418213,0.962905,0.163088,-0.233890,2.655786,1.852607,14.642916
1618539660.690053,91.000000,0.000000,3961.538574,4869.743652,4174.871582,4069.230713,3973.846191,16211.000000,4.000000,77.000000,,,,0.000000,4.000000,4.000000,4.000000,4.000000,4.000000,100.000000,,,,,,,,,,,,,,,,,,,
1618539660.697873,92.000000,0.000000,3966.666748,4865.641113,4170.256348,4055.897461,3974.358887,450.000000,4.000000,77.000000,,,,0.000000,4.000000,4.000000,4.000000,4.000000,4.000000,100.000000,,,,,,,,46.000000,0.000000,0.667459,0.229492,0.571777,-0.418213,0.959976,0.176272,-0.235843,5.380976,0.471039,14.614193
1618539660.705693,93.000000,0.000000,3979.487061,4879.487305,4172.820313,4073.846191,3985.641113,450.000000,4.000000,77.000000,,,,0.000000,4.000000,4.000000,4.000000,4.000000,4.000000,100.000000,,,,,,,,,,,,,,,,,,,
1618539660.713512,94.000000,0.000000,3981.538574,4878.974121,4172.307617,4084.615479,3994.358887,450.000000,4.000000,77.000000,,,,0.000000,4.000000,4.000000,4.000000,4.000000,4.000000,100.000000,,,,,,,,47.000000,0.000000,0.667543,0.229248,0.571777,-0.418213,0.967788,0.151858,-0.229984,5.919555,2.936180,14.528527
1618539660.721332,95.000000,0.000000,3973.333252,4876.410156,4167.179688,4076.923096,3976.410156,16211.000000,4.000000,77.000000,,,,0.000000,4.000000,4.000000,4.000000,4.000000,4.000000,100.000000,,,,,,,,,,,,,,,,,,,
1618539660.729152,96.000000,0.000000,3973.333252,4869.230957,4167.692383,4068.718018,3920.512939,450.000000,4.000000,77.000000,,,,0.000000,4.000000,4.000000,4.000000,4.000000,4.000000,100.000000,,,,,,,,48.000000,0.000000,0.667543,0.229248,0.571777,-0.418213,0.973648,0.155276,-0.245609,2.875169,5.094992,14.511243
1618539660.737071,97.000000,0.000000,3986.153809,4847.179688,4170.256348,4069.230713,3871.794922,450.000000,4.000000,77.000000,,,,0.000000,4.000000,4.000000,4.000000,4.000000,4.000000,100.000000,,,,,,,,,,,,,,,,,,,
1618539660.744891,98.000000,0.000000,3992.820557,4854.871582,4169.230957,4076.410156,3869.743652,450.000000,4.000000,77.000000,,,,0.000000,4.000000,4.000000,4.000000,4.000000,4.000000,100.000000,,,,,,,,49.000000,0.000000,0.667543,0.229248,0.571777,-0.418213,0.962417,0.153811,-0.231937,5.698051,3.389186,14.495687
1618539660.752710,99.000000,0.000000,3992.307617,4876.410156,4173.846191,4081.538574,3871.794922,16211.000000,4.000000,77.000000,,,,0.000000,4.000000,4.000000,4.000000,4.000000,4.000000,100.000000,,,,,,,,,,,,,,,,,,,
1618539660.760530,100.000000,0.000000,3995.897461,4884.615234,4184.102539,4083.076904,3870.769287,450.000000,4.000000,77.000000,,,,0.000000,4.000000,4.000000,4.000000,4.000000,4.000000,100.000000,,,,,,,,50.000000,0.000000,0.667543,0.229248,0.571777,-0.418213,0.976089,0.168948,-0.236820,6.264738,1.734329,14.541503
1618539660.768350,101.000000,0.000000,4001.025635,4875.897461,4186.666504,4081.538574,3873.333252,450.000000,4.000000,77.000000,,,,0.000000,4.000000,4.000000,4.000000,4.000000,4.000000,100.000000,,,,,,,,,,,,,,,,,,,
1618539660.776169,102.000000,0.000000,4004.615479,4875.384766,4186.153809,4076.923096,3827.179443,450.000000,4.000000,77.000000,,,,0.000000,4.000000,4.000000,4.000000,4.000000,4.000000,100.000000,,,,,,,,51.000000,0.000000,0.667543,0.229248,0.571777,-0.418213,0.958999,0.159670,-0.223636,4.980296,3.893695,14.522922
1618539660.783989,103.000000,0.000000,4009.230713,4887.692383,4186.666504,4080.000000,3764.102539,16211.000000,4.000000,77.000000,,,,0.000000,4.000000,4.000000,4.000000,4.000000,4.000000,100.000000,,,,,,,,,,,,,,,,,,,
1618539660.791809,104.000000,0.000000,4010.769287,4871.794922,4177.436035,4083.076904,3756.923096,450.000000,4.000000,77.000000,,,,0.000000,4.000000,4.000000,4.000000,4.000000,4.000000,100.000000,,,,,,,,52.000000,0.000000,0.667543,0.229248,0.571777,-0.418213,0.952651,0.165530,-0.243168,1.910205,2.188388,14.446383
1618539660.799726,105.000000,0.000000,4015.384521,4861.538574,4166.666504,4074.358887,3771.794922,450.000000,4.000000,77.000000,,,,0.000000,4.000000,4.000000,4.000000,4.000000,4.000000,100.000000,,,,,,,,,,,,,,,,,,,
1618539660.807645,106.000000,1.000000,4020.740723,4865.641113,4171.453125,4078.461426,3777.378906,450.000000,4.000000,77.000000,,,,0.000000,4.000000,4.000000,4.000000,4.000000,4.000000,100.000000,,,,,,,,53.000000,1.000000,0.000000,0.229297,0.571777,-0.418164,0.955093,0.163967,0.000000,0.000000,0.000000,0.000000
1618539660.815464,107.000000,1.000000,4026.096924,4869.743652,4176.239258,4082.564209,3782.962891,450.000000,4.000000,77.000000,,,,0.000000,4.000000,4.000000,4.000000,4.000000,4.000000,100.000000,,,,,,,,,,,,,,,,,,,
1618539660.823282,108.000000,1.000000,4031.452881,4873.846191,4181.025879,4086.666748,3788.547119,450.000000,4.000000,77.000000,,,,0.000000,4.000000,4.000000,4.000000,4.000000,4.000000,100.000000,,,,,,,,54.000000,1.000000,0.000000,0.229346,0.571777,-0.418115,0.957534,0.162405,0.000000,0.000000,0.000000,0.000000
1618539660.831101,109.000000,1.000000,4036.809082,4877.948730,4185.812012,4090.769287,3794.131104,450.000000,4.000000,77.000000,,,,0.000000,4.000000,4.000000,4.000000,4.000000,4.000000,100.000000,,,,,,,,,,,,,,,,,,,
1618539660.838920,110.000000,1.000000,4042.165283,4882.051270,4190.598145,4094.871826,3799.715088,450.000000,4.000000,77.000000,,,,0.000000,4.000000,4.000000,4.000000,4.000000,4.000000,100.000000,,,,,,,,55.000000,1.000000,0.000000,0.229395,0.571777,-0.418066,0.959976,0.160842,0.000000,0.000000,0.000000,0.000000
1618539660.846738,111.000000,1.000000,4047.521484,4886.153809,4195.384766,4098.974121,3805.299072,450.000000,4.000000,77.000000,,,,0.000000,4.000000,4.000000,4.000000,4.000000,4.000000,100.000000,,,,,,,,,,,,,,,,,,,
1618539660.854557,112.000000,1.000000,4052.877441,4890.256348,4200.170898,4103.077148,3810.883301,450.000000,4.000000,77.000000,,,,0.000000,4.000000,4.000000,4.000000,4.000000,4.000000,100.000000,,,,,,,,56.000000,1.000000,0.000000,0.229443,0.571777,-0.418018,0.962417,0.159280,0.000000,0.000000,0.000000,0.000000
1618539660.862376,113.000000,1.000000,4058.233643,4894.358887,4204.957031,4107.179688,3816.467285,450.000000,4.000000,77.000000,,,,0.000000,4.000000,4.000000,4.000000,4.000000,4.000000,100.000000,,,,,,,,,,,,,,,,,,,
1618539660.870194,114.000000,0.000000,4063.589844,4898.461426,4209.743652,4111.282227,3822.051270,450.000000,4.000000,77.000000,,,,0.000000,4.000000,4.000000,4.000000,4.000000,4.000000,100.000000,,,,,,,,57.000000,0.000000,0.667612,0.229492,0.571777,-0.417969,0.964858,0.157717,-0.243168,-0.972507,4.601425,14.497128
1618539660.878013,115.000000,0.000000,4077.948730,4901.025879,4208.205078,4112.820313,3830.256348,16211.000000,4.000000,77.000000,,,,0.000000,4.000000,4.000000,4.000000,4.000000,4.000000,100.000000,,,,,,,,,,,,,,,,,,,
1618539660.885832,116.000000,0.000000,4086.666748,4919.487305,4200.512695,4117.948730,3846.666748,450.000000,4.000000,77.000000,,,,0.000000,4.000000,4.000000,4.000000,4.000000,4.000000,100.000000,,,,,,,,58.000000,0.000000,0.667612,0.229492,0.571777,-0.417969,0.962905,0.149905,-0.230961,2.175328,2.944975,14.363354
1618539660.893550,117.000000,0.000000,4089.743652,4918.461426,4188.717773,4113.846191,3865.128174,450.000000,4.000000,77.000000,,,,0.000000,4.000000,4.000000,4.000000,4.000000,4.000000,100.000000,,,,,,,,,,,,,,,,,,,
1618539660.901368,118.000000,0.000000,4088.205078,4899.487305,4183.077148,4101.538574,3866.153809,450.000000,4.000000,77.000000,,,,0.000000,4.000000,4.000000,4.000000,4.000000,4.000000,100.000000,,,,,,,,59.000000,0.000000,0.667612,0.229492,0.571777,-0.417969,0.962905,0.145510,-0.240726,3.154102,1.334540,14.542033
1618539660.909187,119.000000,0.000000,4087.692383,4876.922852,4180.000000,4100.000000,3862.051270,16211.000000,4.000000,77.000000,,,,0.000000,4.000000,4.000000,4.000000,4.000000,4.000000,100.000000,,,,,,,,,,,,,,,,,,,
1618539660.917005,120.000000,0.000000,4088.718018,4869.230957,4172.307617,4104.615234,3861.538574,450.000000,4.000000,77.000000,,,,0.000000,4.000000,4.000000,4.000000,4.000000,4.000000,100.000000,,,,,,,,60.000000,0.000000,0.667821,0.229492,0.571533,-0.417969,0.972671,0.143557,-0.237308,2.120908,3.713331,14.463583
1618539660.924823,121.000000,0.000000,4080.000000,4882.563965,4168.717773,4101.025879,3850.769287,450.000000,4.000000,77.000000,,,,0.000000,4.000000,4.000000,4.000000,4.000000,4.000000,100.000000,,,,,,,,,,,,,,,,,,,
1618539660.932641,122.000000,0.000000,4072.820557,4882.051270,4173.846191,4097.948730,3837.948730,450.000000,4.000000,77.000000,,,,0.000000,4.000000,4.000000,4.000000,4.000000,4.000000,100.000000,,,,,,,,61.000000,0.000000,0.667821,0.229492,0.571533,-0.417969,0.955093,0.161135,-0.242679,1.071402,2.085875,14.452794
1618539660.940460,123.000000,0.000000,4077.948730,4877.948730,4180.512695,4106.153809,3834.358887,16211.000000,4.000000,77.000000,,,,0.000000,4.000000,4.000000,4.000000,4.000000,4.000000,100.000000,,,,,,,,,,,,,,,,,,,
1618539660.948278,124.000000,0.000000,4083.076904,4898.461426,4188.717773,4108.205078,3834.871826,450.000000,4.000000,77.000000,,,,0.000000,4.000000,4.000000,4.000000,4.000000,4.000000,100.000000,,,,,,,,62.000000,0.000000,0.667612,0.229492,0.571777,-0.417969,0.962905,0.145510,-0.240726,0.306292,0.561350,14.502898
1618539660.956096,125.000000,0.000000,4078.974365,4915.384766,4190.256348,4097.948730,3840.000000,450.000000,4.000000,77.000000,,,,0.000000,4.000000,4.000000,4.000000,4.000000,4.000000,100.000000,,,,,,,,,,,,,,,,,,,
1618539660.963914,126.000000,0.000000,4080.512939,4904.615234,4185.641113,4098.974121,3854.871826,450.000000,4.000000,77.000000,,,,0.000000,4.000000,4.000000,4.000000,4.000000,4.000000,100.000000,,,,,,,,63.000000,0.000000,0.667821,0.229492,0.571533,-0.417969,0.955093,0.161135,-0.242679,-0.561752,-0.750908,14.488177
1618539660.971732,127.000000,0.000000,4096.922852,4893.333496,4189.743652,4118.461426,3870.256348,239.000000,4.000000,77.000000,,,,0.000000,4.000000,4.000000,4.000000,4.000000,4.000000,100.000000,,,,,,,,,,,,,,,,,,,
1618539660.979449,0.000000,0.000000,4113.333496,4917.436035,4192.307617,4122.051270,3873.333252,450.000000,4.000000,77.000000,,,,0.000000,4.000000,4.000000,4.000000,4.000000,4.000000,100.000000,,,,,,,,0.000000,0.000000,0.667821,0.229492,0.571533,-0.417969,0.962905,0.157717,-0.245121,0.750546,1.956059,14.415113
1618539660.987265,1.000000,0.000000,4122.051270,4923.077148,4175.897461,4103.589844,3872.820557,450.000000,4.000000,77.000000,,,,0.000000,4.000000,4.000000,4.000000,4.000000,4.000000,100.000000,,,,,,,,,,,,,,,,,,,
1618539660.995081,2.000000,0.000000,4125.128418,4892.307617,4166.153809,4095.897461,3872.820557,16240.000000,4.000000,77.000000,,,,0.000000,4.000000,4.000000,4.000000,4.000000,4.000000,100.000000,,,,,,,,1.000000,0.000000,0.667821,0.229492,0.571533,-0.417969,0.958022,0.152834,-0.241215,3.666260,0.444515,14.409170
1618539661.002897,3.000000,0.000000,4118.974121,4900.000000,4174.871582,4110.256348,3858.974365,450.000000,4.000000,77.000000,,,,0.000000,4.000000,4.000000,4.000000,4.000000,4.000000,100.000000,,,,,,,,,,,,,,,,,,,
1618539661.010614,4.000000,0.000000,4108.717773,4918.974121,4176.922852,4114.871582,3838.461426,294.000000,4.000000,77.000000,,,,0.000000,4.000000,2.000000,4.000000,4.000000,4.000000,83.333336,,,,,,,,2.000000,0.000000,0.667821,0.229492,0.571533,-0.417969,0.953628,0.167483,-0.240238,2.462219,-0.856059,14.403822
1618539661.018432,5.000000,0.000000,4106.666504,4885.641113,4169.743652,4097.948730,3830.769287,450.000000,4.000000,77.000000,,,,0.000000,4.000000,2.000000,4.000000,4.000000,4.000000,83.333336,,,,,,,,,,,,,,,,,,,
1618539661.026249,6.000000,0.000000,4117.948730,4876.922852,4173.333496,4094.358887,3832.820557,16220.000000,4.000000,77.000000,,,,0.000000,4.000000,2.000000,4.000000,4.000000,4.000000,83.333336,,,,,,,,3.000000,0.000000,0.667737,0.229736,0.571533,-0.417969,0.962905,0.153811,-0.243168,3.352489,-1.847130,14.399009
1618539661.034067,7.000000,0.000000,4134.871582,4921.025879,4178.974121,4112.307617,3842.051270,450.000000,4.000000,77.000000,,,,0.000000,4.000000,2.000000,4.000000,4.000000,4.000000,83.333336,,,,,,,,,,,,,,,,,,,
1618539661.041884,8.000000,0.000000,4147.692383,4915.897461,4172.307617,4124.615234,3864.102539,450.000000,4.000000,77.000000,,,,0.000000,4.000000,2.000000,4.000000,4.000000,4.000000,83.333336,,,,,,,,4.000000,0.000000,0.667946,0.229736,0.571289,-0.417969,0.968277,0.158206,-0.235355,4.153732,-2.978355,14.275046
1618539661.049702,9.000000,0.000000,4157.948730,4883.589844,4175.384766,4131.794922,3882.564209,16107.000000,4.000000,77.000000,,,,0.000000,4.000000,2.000000,4.000000,4.000000,4.000000,83.333336,,,,,,,,,,,,,,,,,,,
1618539661.057519,10.000000,0.000000,4171.282227,4918.974121,4183.589844,4138.974121,3890.256348,450.000000,4.000000,77.000000,,,,0.000000,4.000000,2.000000,4.000000,4.000000,4.000000,83.333336,,,,,,,,5.000000,0.000000,0.667793,0.229736,0.571289,-0.418213,0.963394,0.168948,-0.239750,5.054296,-0.168274,14.342926
1618539661.065238,11.000000,0.000000,4178.461426,4947.692383,4175.897461,4131.282227,3900.000000,16227.000000,4.000000,77.000000,,,,0.000000,4.000000,2.000000,4.000000,4.000000,4.000000,83.333336,,,,,,,,,,,,,,,,,,,
1618539661.073056,12.000000,0.000000,4181.025879,4898.974121,4168.205078,4117.948730,3905.128174,450.000000,4.000000,77.000000,,,,0.000000,4.000000,2.000000,4.000000,4.000000,4.000000,83.333336,,,,,,,,6.000000,0.000000,0.667793,0.229736,0.571289,-0.418213,0.955581,0.146487,-0.246586,1.976806,2.420614,14.404017
1618539661.080874,13.000000,0.000000,4184.615234,4875.384766,4165.641113,4116.410156,3904.615479,450.000000,4.000000,77.000000,,,,0.000000,4.000000,2.000000,4.000000,4.000000,4.000000,83.333336,,,,,,,,,,,,,,,,,,,
1618539661.088692,14.000000,0.000000,4181.025879,4895.384766,4161.025879,4119.487305,3907.692383,450.000000,4.000000,77.000000,,,,0.000000,4.000000,2.000000,4.000000,4.000000,4.000000,83.333336,,,,,,,,7.000000,0.000000,0.667793,0.229736,0.571289,-0.418213,0.968277,0.159182,-0.228031,2.975433,4.810429,14.339369
1618539661.096511,15.000000,0.000000,4172.820313,4902.051270,4164.102539,4122.051270,3911.281982,16227.000000,4.000000,77.000000,,,,0.000000,4.000000,2.000000,4.000000,4.000000,4.000000,83.333336,,,,,,,,,,,,,,,,,,,
1618539661.104329,16.000000,0.000000,4171.794922,4920.000000,4176.922852,4121.025879,3905.641113,0.000000,4.000000,77.000000,,,,0.000000,4.000000,2.000000,4.000000,4.000000,4.000000,83.333336,,,,,,,,8.000000,0.000000,0.667793,0.229736,0.571289,-0.418213,0.964858,0.161624,-0.248539,3.934012,3.073263,14.400816
1618539661.112147,17.000000,0.000000,4174.871582,4937.436035,4182.051270,4114.358887,3901.025635,0.000000,4.000000,77.000000,,,,0.000000,4.000000,2.000000,4.000000,4.000000,4.000000,83.333336,,,,,,,,,,,,,,,,,,,
1618539661.119965,18.000000,0.000000,4181.538574,4924.615234,4175.897461,4116.410156,3910.256348,0.000000,4.000000,77.000000,,,,0.000000,4.000000,2.000000,4.000000,4.000000,4.000000,83.333336,,,,,,,,9.000000,0.000000,0.667793,0.229736,0.571289,-0.418213,0.958511,0.160647,-0.247562,0.848920,5.457628,14.336488
1618539661.127684,19.000000,0.000000,4193.333496,4903.077148,4164.102539,4134.358887,3924.615479,0.000000,4.000000,77.000000,,,,0.000000,4.000000,2.000000,4.000000,4.000000,4.000000,83.333336,,,,,,,,,,,,,,,,,,,
1618539661.135503,20.000000,0.000000,4193.846191,4882.563965,4150.769043,4142.051270,3931.794922,0.000000,4.000000,77.000000,,,,0.000000,4.000000,2.000000,4.000000,4.000000,4.000000,83.333336,,,,,,,,10.000000,0.000000,0.667793,0.229736,0.571289,-0.418213,0.968765,0.151858,-0.237308,2.020150,3.595927,14.218777
1618539661.143322,21.000000,0.000000,4188.205078,4871.794922,4146.666504,4131.282227,3946.153809,0.000000,4.000000,77.000000,,,,0.000000,4.000000,2.000000,4.000000,4.000000,4.000000,83.333336,,,,,,,,,,,,,,,,,,,
1618539661.151140,22.000000,0.000000,4202.051270,4911.282227,4156.410156,4126.153809,3974.871826,0.000000,4.000000,77.000000,,,,0.000000,4.000000,2.000000,4.000000,4.000000,4.000000,83.333336,,,,,,,,11.000000,0.000000,0.667946,0.229736,0.571289,-0.417969,0.964370,0.148928,-0.239261,3.134073,5.688765,14.232469
1618539661.158959,23.000000,0.000000,4222.051270,4946.666504,4169.743652,4131.282227,3995.384521,0.000000,4.000000,77.000000,,,,0.000000,4.000000,2.000000,4.000000,4.000000,4.000000,83.333336,,,,,,,,,,,,,,,,,,,
1618539661.166778,24.000000,0.000000,4227.179688,4923.589844,4174.871582,4135.897461,4004.102539,0.000000,4.000000,77.000000,,,,0.000000,4.000000,2.000000,4.000000,4.000000,4.000000,83.333336,0.875000,75.000000,3.000000,2.000000,4.000000,4.000000,4.000000,12.000000,0.000000,0.667793,0.229736,0.571289,-0.418213,0.964370,0.164553,-0.237308,4.016973,7.751764,14.184975
1618539661.174596,25.000000,0.000000,4222.563965,4897.948730,4177.948730,4132.307617,4009.230713,0.000000,4.000000,77.000000,,,,0.000000,4.000000,2.000000,4.000000,4.000000,4.000000,83.333336,,,,,,,,,,,,,,,,,,,
1618539661.182415,26.000000,0.000000,4228.205078,4915.384766,4189.230957,4127.692383,4010.769287,0.000000,4.000000,77.000000,,,,0.000000,4.000000,2.000000,4.000000,4.000000,4.000000,83.333336,,,,,,,,13.000000,0.000000,0.667793,0.229736,0.571289,-0.418213,0.962905,0.153811,-0.232425,4.751768,5.780281,14.321677
1618539661.190234,27.000000,0.000000,4236.922852,4931.282227,4188.717773,4125.128418,4011.794922,0.000000,4.000000,77.000000,,,,0.000000,4.000000,2.000000,4.000000,4.000000,4.000000,83.333336,,,,,,,,,,,,,,,,,,,
1618539661.198052,28.000000,0.000000,4232.820313,4906.153809,4164.102539,4125.128418,4008.205078,0.000000,4.000000,77.000000,,,,0.000000,4.000000,2.000000,4.000000,4.000000,4.000000,83.333336,,,,,,,,14.000000,0.000000,0.667793,0.229736,0.571289,-0.418213,0.967788,0.162112,-0.238773,5.353268,7.714498,14.265263
1618539661.205771,29.000000,0.000000,4226.666504,4901.025879,4146.666504,4127.692383,4001.538574,0.000000,4.000000,77.000000,,,,0.000000,4.000000,2.000000,4.000000,4.000000,4.000000,83.333336,,,,,,,,,,,,,,,,,,,
1618539661.213589,30.000000,0.000000,4226.153809,4921.538574,4149.230957,4129.230957,4003.076904,0.000000,4.000000,77.000000,,,,0.000000,4.000000,2.000000,4.000000,4.000000,4.000000,83.333336,,,,,,,,15.000000,0.000000,0.667877,0.229492,0.571289,-0.418213,0.958022,0.155764,-0.235843,6.074064,5.806556,14.453752
1618539661.221408,31.000000,0.000000,4233.333496,4927.692383,4150.256348,4129.743652,4014.871826,0.000000,4.000000,77.000000,,,,0.000000,4.000000,2.000000,4.000000,4.000000,4.000000,83.333336,,,,,,,,,,,,,,,,,,,
1618539661.229226,32.000000,0.000000,4247.179688,4922.051270,4153.846191,4127.179688,4031.794922,0.000000,4.000000,77.000000,,,,0.000000,4.000000,2.000000,4.000000,4.000000,4.000000,83.333336,,,,,,,,16.000000,0.000000,0.667877,0.229492,0.571289,-0.418213,0.962905,0.158694,-0.246586,2.834781,7.917592,14.503760
1618539661.237045,33.000000,0.000000,4259.487305,4927.692383,4171.794922,4127.179688,4052.307617,0.000000,4.000000,77.000000,,,,0.000000,4.000000,2.000000,4.000000,4.000000,4.000000,83.333336,,,,,,,,,,,,,,,,,,,
1618539661.244863,34.000000,0.000000,4270.256348,4940.512695,4187.179688,4138.461426,4068.718018,0.000000,4.000000,77.000000,,,,0.000000,4.000000,2.000000,4.000000,4.000000,4.000000,83.333336,,,,,,,,17.000000,0.000000,0.667877,0.229492,0.571289,-0.418213,0.977554,0.156252,-0.248051,5.542071,5.869710,14.488953
1618539661.252682,35.000000,0.000000,4284.615234,4923.589844,4187.179688,4145.128418,4073.333252,0.000000,4.000000,77.000000,,,,0.000000,4.000000,2.000000,4.000000,4.000000,4.000000,83.333336,,,,,,,,,,,,,,,,,,,
1618539661.260500,36.000000,0.000000,4292.820313,4901.538574,4187.692383,4137.436035,4073.333252,0.000000,4.000000,77.000000,,,,0.000000,4.000000,2.000000,4.000000,4.000000,4.000000,83.333336,,,,,,,,18.000000,0.000000,0.667877,0.229492,0.571289,-0.418213,0.972183,0.142092,-0.239750,4.090634,4.026617,14.655072
1618539661.268219,37.000000,0.000000,4290.769043,4893.333496,4189.230957,4137.436035,4071.794922,0.000000,4.000000,77.000000,,,,0.000000,4.000000,2.000000,4.000000,4.000000,4.000000,83.333336,,,,,,,,,,,,,,,,,,,
1618539661.276038,38.000000,0.000000,4287.179688,4897.948730,4181.025879,4148.205078,4068.718018,0.000000,4.000000,77.000000,,,,0.000000,4.000000,2.000000,4.000000,4.000000,4.000000,83.333336,,,,,,,,19.000000,0.000000,0.667877,0.229492,0.571289,-0.418213,0.971206,0.159670,-0.241215,4.758247,2.188386,14.625134
1618539661.283856,39.000000,0.000000,4281.025879,4891.794922,4167.179688,4142.563965,4066.153809,0.000000,4.000000,77.000000,,,,0.000000,4.000000,2.000000,4.000000,4.000000,4.000000,83.333336,,,,,,,,,,,,,,,,,,,
1618539661.291675,40.000000,0.000000,4279.487305,4888.205078,4154.871582,4128.717773,4070.256348,0.000000,4.000000,77.000000,,,,0.000000,4.000000,2.000000,4.000000,4.000000,4.000000,83.333336,,,,,,,,20.000000,0.000000,0.667877,0.229492,0.571289,-0.418213,0.966323,0.156252,-0.240238,5.538545,0.713425,14.717820
1618539661.299494,41.000000,0.000000,4293.333496,4915.384766,4150.256348,4131.282227,4085.641113,0.000000,4.000000,77.000000,,,,0.000000,4.000000,2.000000,4.000000,4.000000,4.000000,83.333336,,,,,,,,,,,,,,,,,,,
1618539661.307313,42.000000,0.000000,4299.487305,4902.051270,4149.743652,4140.000000,4098.974121,0.000000,4.000000,77.000000,,,,0.000000,4.000000,2.000000,4.000000,4.000000,4.000000,83.333336,,,,,,,,21.000000,0.000000,0.667877,0.229492,0.571289,-0.418213,0.953628,0.166506,-0.242191,6.240813,3.273958,14.861053
1618539661.315131,43.000000,0.000000,4290.256348,4885.641113,4146.153809,4146.153809,4105.128418,0.000000,4.000000,77.000000,,,,0.000000,4.000000,2.000000,4.000000,4.000000,4.000000,83.333336,,,,,,,,,,,,,,,,,,,
1618539661.323050,44.000000,0.000000,4292.820313,4937.948730,4147.692383,4157.948730,4117.436035,0.000000,4.000000,77.000000,,,,0.000000,4.000000,2.000000,4.000000,4.000000,4.000000,83.333336,,,,,,,,22.000000,0.000000,0.667877,0.229492,0.571289,-0.418213,0.963882,0.164553,-0.242679,6.813039,5.518623,14.690886
1618539661.330869,45.000000,0.000000,4308.205078,4937.948730,4164.102539,4166.666504,4137.436035,0.000000,4.000000,77.000000,,,,0.000000,4.000000,2.000000,4.000000,4.000000,4.000000,83.333336,,,,,,,,,,,,,,,,,,,
1618539661.338689,46.000000,0.000000,4316.922852,4885.128418,4183.589844,4169.743652,4151.794922,0.000000,4.000000,77.000000,,,,0.000000,4.000000,2.000000,4.000000,4.000000,4.000000,83.333336,,,,,,,,23.000000,0.000000,0.667877,0.229492,0.571289,-0.418213,0.967788,0.157229,-0.248539,7.387858,3.710638,14.657366
1618539661.346508,47.000000,0.000000,4326.153809,4909.743652,4190.769043,4178.974121,4166.666504,0.000000,4.000000,77.000000,,,,0.000000,4.000000,2.000000,4.000000,4.000000,4.000000,83.333336,,,,,,,,,,,,,,,,,,,
1618539661.354327,48.000000,0.000000,4336.410156,4915.384766,4189.743652,4183.077148,4181.538574,0.000000,4.000000,77.000000,,,,0.000000,4.000000,2.000000,4.000000,4.000000,4.000000,83.333336,,,,,,,,24.000000,0.000000,0.668030,0.229492,0.571289,-0.417969,0.962417,0.151369,-0.249516,9.759471,2.083452,14.567383
1618539661.362146,49.000000,0.000000,4325.128418,4870.769043,4187.692383,4169.743652,4175.897461,0.000000,4.000000,77.000000,,,,0.000000,4.000000,2.000000,4.000000,4.000000,4.000000,83.333336,,,,,,,,,,,,,,,,,,,
1618539661.369965,50.000000,0.000000,4312.307617,4913.846191,4186.666504,4162.051270,4170.769043,0.000000,4.000000,77.000000,,,,0.000000,4.000000,2.000000,4.000000,4.000000,4.000000,83.333336,,,,,,,,25.000000,0.000000,0.668239,0.229492,0.571045,-0.417969,0.969253,0.152834,-0.236332,8.125555,0.798430,14.606029
1618539661.377885,51.000000,0.000000,4329.230957,4952.820313,4185.128418,4162.563965,4191.794922,0.000000,4.000000,77.000000,,,,0.000000,4.000000,2.000000,4.000000,4.000000,4.000000,83.333336,,,,,,,,,,,,,,,,,,,
1618539661.385705,52.000000,0.000000,4348.717773,4907.179688,4185.128418,4154.358887,4216.410156,0.000000,4.000000,77.000000,,,,0.000000,4.000000,2.000000,4.000000,4.000000,4.000000,83.333336,,,,,,,,26.000000,0.000000,0.668323,0.229248,0.571045,-0.417969,0.973648,0.174319,-0.228519,6.655030,-0.537536,14.640810
1618539661.393524,53.000000,0.000000,4351.794922,4906.153809,4185.641113,4150.769043,4225.128418,0.000000,4.000000,77.000000,,,,0.000000,4.000000,2.000000,4.000000,4.000000,4.000000,83.333336,,,,,,,,,,,,,,,,,,,
1618539661.401344,54.000000,0.000000,4359.487305,4951.794922,4186.153809,4161.025879,4229.230957,0.000000,4.000000,77.000000,,,,0.000000,4.000000,2.000000,4.000000,4.000000,4.000000,83.333336,,,,,,,,27.000000,0.000000,0.668030,0.229492,0.571289,-0.417969,0.972183,0.150881,-0.246098,9.099926,-1.739905,14.672113
1618539661.409164,55.000000,0.000000,4365.641113,4936.410156,4187.179688,4169.230957,4232.307617,0.000000,4.000000,77.000000,,,,0.000000,4.000000,2.000000,4.000000,4.000000,4.000000,83.333336,,,,,,,,,,,,,,,,,,,
1618539661.416983,56.000000,0.000000,4352.820313,4886.666504,4183.589844,4167.179688,4225.641113,0.000000,4.000000,77.000000,,,,0.000000,4.000000,2.000000,4.000000,4.000000,4.000000,83.333336,,,,,,,,28.000000,0.000000,0.668323,0.229248,0.571045,-0.417969,0.965835,0.152834,-0.248539,11.300333,-2.762222,14.760101
1618539661.424803,57.000000,0.000000,4343.077148,4876.410156,4177.436035,4166.666504,4223.589844,0.000000,4.000000,77.000000,,,,0.000000,4.000000,2.000000,4.000000,4.000000,4.000000,83.333336,,,,,,,,,,,,,,,,,,,
1618539661.432622,58.000000,0.000000,4348.205078,4891.282227,4178.974121,4170.256348,4235.897461,0.000000,4.000000,77.000000,,,,0.000000,4.000000,2.000000,4.000000,4.000000,4.000000,83.333336,,,,,,,,29.000000,0.000000,0.668323,0.229248,0.571045,-0.417969,0.973648,0.174319,-0.228519,9.392700,-3.801938,14.779475
1618539661.440442,59.000000,0.000000,4351.282227,4907.692383,4184.615234,4165.128418,4250.769043,0.000000,4.000000,77.000000,,,,0.000000,4.000000,2.000000,4.000000,4.000000,4.000000,83.333336,,,,,,,,,,,,,,,,,,,
1618539661.448362,60.000000,0.000000,4356.410156,4922.563965,4188.205078,4162.563965,4263.077148,0.000000,4.000000,77.000000,,,,0.000000,4.000000,2.000000,4.000000,4.000000,4.000000,83.333336,,,,,,,,30.000000,0.000000,0.668323,0.229248,0.571045,-0.417969,0.965835,0.152834,-0.248539,11.563828,-4.618051,14.856728
1618539661.456181,61.000000,0.000000,4366.666504,4897.436035,4188.717773,4175.897461,4269.743652,0.000000,4.000000,77.000000,,,,0.000000,4.000000,2.000000,4.000000,4.000000,4.000000,83.333336,,,,,,,,,,,,,,,,,,,
1618539661.464001,62.000000,0.000000,4374.358887,4889.230957,4188.205078,4183.077148,4268.205078,0.000000,4.000000,77.000000,,,,0.000000,4.000000,2.000000,4.000000,4.000000,4.000000,83.333336,,,,,,,,31.000000,0.000000,0.668239,0.229492,0.571045,-0.417969,0.952651,0.149416,-0.245121,9.629847,-5.472184,14.866439
1618539661.471821,63.000000,0.000000,4388.717773,4949.743652,4193.846191,4174.358887,4277.948730,0.000000,4.000000,77.000000,,,,0.000000,4.000000,2.000000,4.000000,4.000000,4.000000,83.333336,,,,,,,,,,,,,,,,,,,
1618539661.479640,64.000000,0.000000,4405.641113,4963.589844,4203.077148,4177.948730,4300.000000,450.000000,4.000000,77.000000,,,,0.000000,4.000000,2.000000,4.000000,4.000000,4.000000,83.333336,,,,,,,,32.000000,0.000000,0.668391,0.229492,0.571045,-0.417725,0.967788,0.156741,-0.238773,9.922984,-6.181088,14.875179
1618539661.487460,65.000000,0.000000,4398.461426,4900.512695,4202.563965,4187.179688,4297.948730,450.000000,4.000000,77.000000,,,,0.000000,4.000000,2.000000,4.000000,4.000000,4.000000,83.333336,,,,,,,,,,,,,,,,,,,
1618539661.495280,66.000000,0.000000,4377.948730,4901.025879,4195.897461,4182.051270,4284.102539,16211.000000,4.000000,77.000000,,,,0.000000,4.000000,2.000000,4.000000,4.000000,4.000000,83.333336,,,,,,,,33.000000,0.000000,0.668239,0.229492,0.571045,-0.417969,0.969741,0.150881,-0.229007,10.067178,-6.938733,14.763414
1618539661.503099,67.000000,0.000000,4381.025879,4949.230957,4193.846191,4184.102539,4298.461426,450.000000,4.000000,77.000000,,,,0.000000,4.000000,2.000000,4.000000,4.000000,4.000000,83.333336,,,,,,,,,,,,,,,,,,,
1618539661.510919,68.000000,0.000000,4399.487305,4926.153809,4189.230957,4192.820313,4318.974121,179.000000,4.000000,77.000000,,,,0.000000,4.000000,2.000000,4.000000,4.000000,4.000000,83.333336,,,,,,,,34.000000,0.000000,0.668239,0.229492,0.571045,-0.417969,0.961929,0.144533,-0.243656,8.462306,-3.612983,14.662827
1618539661.518838,69.000000,0.000000,4397.948730,4900.000000,4183.077148,4186.666504,4320.512695,450.000000,4.000000,77.000000,,,,0.000000,4.000000,2.000000,4.000000,4.000000,4.000000,83.333336,,,,,,,,,,,,,,,,,,,
1618539661.526658,70.000000,0.000000,4385.128418,4931.794922,4187.179688,4181.538574,4318.461426,16179.000000,4.000000,77.000000,,,,0.000000,4.000000,2.000000,4.000000,4.000000,4.000000,83.333336,,,,,,,,35.000000,0.000000,0.668239,0.229492,0.571045,-0.417969,0.965347,0.152834,-0.243168,6.718845,-4.567623,14.572297
1618539661.534478,71.000000,0.000000,4388.717773,4945.128418,4195.897461,4184.615234,4321.538574,450.000000,4.000000,77.000000,,,,0.000000,4.000000,2.000000,4.000000,4.000000,4.000000,83.333336,,,,,,,,,,,,,,,,,,,
1618539661.542297,72.000000,0.000000,4401.025879,4932.820313,4200.512695,4184.615234,4322.051270,450.000000,4.000000,77.000000,,,,0.000000,4.000000,2.000000,4.000000,4.000000,4.000000,83.333336,,,,,,,,36.000000,0.000000,0.668239,0.229492,0.571045,-0.417969,0.971695,0.148928,-0.243168,7.183453,-5.486614,14.490821
1618539661.550117,73.000000,0.000000,4404.615234,4922.051270,4200.512695,4182.563965,4324.102539,16089.000000,4.000000,77.000000,,,,0.000000,4.000000,2.000000,4.000000,4.000000,4.000000,83.333336,,,,,,,,,,,,,,,,,,,
1618539661.557937,74.000000,0.000000,4404.102539,4920.000000,4199.487305,4178.461426,4328.205078,450.000000,4.000000,77.000000,,,,0.000000,4.000000,2.000000,4.000000,4.000000,4.000000,83.333336,,,,,,,,37.000000,0.000000,0.668155,0.229736,0.571045,-0.417969,0.959487,0.159182,-0.240238,5.747323,-2.365892,14.477307
1618539661.565756,75.000000,0.000000,4409.230957,4919.487305,4198.461426,4164.615234,4333.846191,16206.000000,4.000000,77.000000,,,,0.000000,4.000000,2.000000,4.000000,4.000000,4.000000,83.333336,,,,,,,,,,,,,,,,,,,
1618539661.573576,76.000000,0.000000,4421.025879,4905.128418,4199.487305,4153.846191,4335.897461,450.000000,4.000000,77.000000,,,,0.000000,4.000000,2.000000,4.000000,4.000000,4.000000,83.333336,,,,,,,,38.000000,0.000000,0.668155,0.229736,0.571045,-0.417969,0.975113,0.157229,-0.243656,4.514622,0.562389,14.704407
1618539661.581396,77.000000,0.000000,4425.641113,4904.615234,4202.051270,4158.974121,4323.077148,450.000000,4.000000,77.000000,,,,0.000000,4.000000,2.000000,4.000000,4.000000,4.000000,83.333336,,,,,,,,,,,,,,,,,,,
1618539661.589315,78.000000,0.000000,4421.538574,4944.615234,4200.000000,4164.615234,4311.282227,450.000000,4.000000,77.000000,,,,0.000000,4.000000,2.000000,4.000000,4.000000,4.000000,83.333336,,,,,,,,39.000000,0.000000,0.668308,0.229736,0.571045,-0.417725,0.964858,0.163577,-0.245121,7.113743,-0.809788,14.609720
1618539661.597135,79.000000,0.000000,4427.692383,4963.077148,4198.974121,4170.256348,4320.512695,16206.000000,4.000000,77.000000,,,,0.000000,4.000000,2.000000,4.000000,4.000000,4.000000,83.333336,,,,,,,,,,,,,,,,,,,
1618539661.604955,80.000000,0.000000,4434.358887,4921.025879,4199.487305,4183.077148,4328.717773,450.000000,4.000000,77.000000,,,,0.000000,4.000000,2.000000,4.000000,4.000000,4.000000,83.333336,,,,,,,,40.000000,0.000000,0.668252,0.229736,0.571289,-0.417480,0.959487,0.150881,-0.236820,3.890123,1.723620,14.464685
1618539661.612775,81.000000,0.000000,4429.230957,4909.743652,4196.922852,4185.641113,4325.641113,450.000000,4.000000,77.000000,,,,0.000000,4.000000,2.000000,4.000000,4.000000,4.000000,83.333336,,,,,,,,,,,,,,,,,,,
1618539661.620595,82.000000,0.000000,4428.717773,4949.743652,4197.436035,4175.384766,4328.717773,450.000000,4.000000,77.000000,,,,0.000000,4.000000,2.000000,4.000000,4.000000,4.000000,83.333336,,,,,,,,41.000000,0.000000,0.668252,0.229736,0.571289,-0.417480,0.967300,0.155276,-0.240726,4.757234,4.123319,14.334155
1618539661.628415,83.000000,0.000000,4430.256348,4933.333496,4205.128418,4173.846191,4335.384766,16206.000000,4.000000,77.000000,,,,0.000000,4.000000,2.000000,4.000000,4.000000,4.000000,83.333336,,,,,,,,,,,,,,,,,,,
1618539661.636235,84.000000,0.000000,4424.615234,4906.666504,4211.282227,4182.051270,4333.333496,450.000000,4.000000,77.000000,,,,0.000000,4.000000,2.000000,4.000000,4.000000,4.000000,83.333336,,,,,,,,42.000000,0.000000,0.668252,0.229736,0.571289,-0.417480,0.951675,0.144533,-0.245121,1.589819,6.342864,14.396124
1618539661.644055,85.000000,0.000000,4415.897461,4944.102539,4208.717773,4181.025879,4326.153809,450.000000,4.000000,77.000000,,,,0.000000,4.000000,2.000000,4.000000,4.000000,4.000000,83.333336,,,,,,,,,,,,,,,,,,,
1618539661.651875,86.000000,0.000000,4411.794922,4957.436035,4209.743652,4176.410156,4321.025879,450.000000,4.000000,77.000000,,,,0.000000,4.000000,2.000000,4.000000,4.000000,4.000000,83.333336,,,,,,,,43.000000,0.000000,0.668252,0.229736,0.571289,-0.417480,0.964370,0.148440,-0.238773,0.533607,4.392639,14.392080
1618539661.659794,87.000000,0.000000,4422.563965,4930.256348,4216.922852,4185.128418,4329.743652,16206.000000,4.000000,77.000000,,,,0.000000,4.000000,2.000000,4.000000,4.000000,4.000000,83.333336,,,,,,,,,,,,,,,,,,,
1618539661.667613,88.000000,0.000000,4441.025879,4918.461426,4221.025879,4194.358887,4348.717773,450.000000,4.000000,77.000000,,,,0.000000,4.000000,2.000000,4.000000,4.000000,4.000000,83.333336,0.886719,66.666664,3.000000,2.000000,4.000000,4.000000,3.000000,44.000000,0.000000,0.668099,0.229736,0.571289,-0.417725,0.971206,0.142580,-0.245609,-0.177723,2.757068,14.328626
1618539661.675433,89.000000,0.000000,4442.563965,4901.025879,4218.974121,4189.230957,4358.974121,450.000000,4.000000,77.000000,,,,0.000000,4.000000,2.000000,4.000000,4.000000,4.000000,83.333336,,,,,,,,,,,,,,,,,,,
1618539661.683252,90.000000,0.000000,4429.743652,4909.743652,4204.102539,4178.461426,4363.077148,450.000000,4.000000,77.000000,,,,0.000000,4.000000,2.000000,4.000000,4.000000,4.000000,83.333336,,,,,,,,45.000000,0.000000,0.668099,0.229736,0.571289,-0.417725,0.965347,0.145510,-0.233890,0.976541,1.285054,14.211701
1618539661.691072,91.000000,0.000000,4430.769043,4939.487305,4188.717773,4177.436035,4368.717773,16206.000000,4.000000,77.000000,,,,0.000000,4.000000,2.000000,4.000000,4.000000,4.000000,83.333336,,,,,,,,,,,,,,,,,,,
1618539661.698891,92.000000,0.000000,4439.487305,4927.692383,4200.000000,4186.153809,4366.153809,450.000000,4.000000,77.000000,,,,0.000000,4.000000,2.000000,4.000000,4.000000,4.000000,83.333336,,,,,,,,46.000000,0.000000,0.668030,0.229492,0.571289,-0.417969,0.953140,0.156741,-0.242679,1.955564,-0.219205,14.405546
1618539661.706811,93.000000,1.000000,4437.756348,4930.577148,4203.012695,4187.371582,4368.653809,450.000000,4.000000,77.000000,,,,0.000000,4.000000,2.000000,4.000000,4.000000,4.000000,83.333336,,,,,,,,,,,,,,,,,,,
1618539661.714632,94.000000,1.000000,4436.025879,4933.461426,4206.025879,4188.589844,4371.153809,450.000000,4.000000,77.000000,,,,0.000000,4.000000,2.000000,4.000000,4.000000,4.000000,83.333336,,,,,,,,47.000000,1.000000,0.000000,0.229492,0.571289,-0.418030,0.955093,0.159548,0.000000,0.000000,0.000000,0.000000
1618539661.722452,95.000000,1.000000,4434.294922,4936.346191,4209.038574,4189.807617,4373.653809,450.000000,4.000000,77.000000,,,,0.000000,4.000000,2.000000,4.000000,4.000000,4.000000,83.333336,,,,,,,,,,,,,,,,,,,
1618539661.730272,96.000000,1.000000,4432.563965,4939.230957,4212.051270,4191.025879,4376.153809,450.000000,4.000000,77.000000,,,,0.000000,4.000000,2.000000,4.000000,4.000000,4.000000,83.333336,,,,,,,,48.000000,1.000000,0.000000,0.229492,0.571289,-0.418091,0.957046,0.162356,0.000000,0.000000,0.000000,0.000000
1618539661.738093,97.000000,1.000000,4430.833496,4942.115234,4215.063965,4192.243652,4378.653809,450.000000,4.000000,77.000000,,,,0.000000,4.000000,2.000000,4.000000,4.000000,4.000000,83.333336,,,,,,,,,,,,,,,,,,,
1618539661.745913,98.000000,1.000000,4429.102539,4945.000000,4218.077148,4193.461426,4381.153809,450.000000,4.000000,77.000000,,,,0.000000,4.000000,2.000000,4.000000,4.000000,4.000000,83.333336,,,,,,,,49.000000,1.000000,0.000000,0.229492,0.571289,-0.418152,0.958999,0.165164,0.000000,0.000000,0.000000,0.000000
1618539661.753733,99.000000,1.000000,4427.371582,4947.884766,4221.089844,4194.679688,4383.653809,450.000000,4.000000,77.000000,,,,0.000000,4.000000,2.000000,4.000000,4.000000,4.000000,83.333336,,,,,,,,,,,,,,,,,,,
1618539661.761554,100.000000,0.000000,4425.641113,4950.769043,4224.102539,4195.897461,4386.153809,450.000000,4.000000,77.000000,,,,0.000000,4.000000,2.000000,4.000000,4.000000,4.000000,83.333336,,,,,,,,50.000000,0.000000,0.667877,0.229492,0.571289,-0.418213,0.960952,0.167971,-0.241215,3.689507,1.036696,14.437943
1618539661.769374,101.000000,0.000000,4423.589844,4952.307617,4214.358887,4193.333496,4376.922852,450.000000,4.000000,77.000000,,,,0.000000,4.000000,2.000000,4.000000,4.000000,4.000000,83.333336,,,,,,,,,,,,,,,,,,,
