title:S32, start timestamp:1618539828.366985, stop timestamp:1618539939.314245, headset type:INSIGHT, headset serial:A2D202F3, headset firmware:932, channels:40, sampling rate:eeg_128;mot_64, samples:14197     , version:2.1, 
Timestamp,EEG.Counter,EEG.Interpolated,EEG.AF3,EEG.T7,EEG.Pz,EEG.T8,EEG.AF4,EEG.RawCq,EEG.Battery,EEG.BatteryPercent,MarkerIndex,MarkerType,MarkerValueInt,EEG.MarkerHardware,CQ.AF3,CQ.T7,CQ.Pz,CQ.T8,CQ.AF4,CQ.Overall,EQ.SampleRateQuality,EQ.OVERALL,EQ.AF3,EQ.T7,EQ.Pz,EQ.T8,EQ.AF4,MOT.CounterMems,MOT.InterpolatedMems,MOT.Q0,MOT.Q1,MOT.Q2,MOT.Q3,MOT.AccX,MOT.AccY,MOT.AccZ,MOT.MagX,MOT.MagY,MOT.MagZ
1618539828.366985,43.000000,0.000000,3526.666748,4805.128418,3867.179443,3980.512939,3715.384521,0.000000,3.000000,73.000000,,,,0.000000,4.000000,0.000000,4.000000,4.000000,4.000000,66.666664,,,,,,,,,,,,,,,,,,,
1618539828.374703,44.000000,0.000000,3531.281982,4790.256348,3882.051270,3987.179443,3724.102539,0.000000,3.000000,73.000000,,,,0.000000,4.000000,0.000000,4.000000,4.000000,4.000000,66.666664,,,,,,,,22.000000,0.000000,0.669236,0.222900,0.581543,-0.405273,0.961929,0.162112,-0.221683,2.625418,4.634590,14.088551
1618539828.382520,45.000000,0.000000,3541.025635,4811.794922,3900.512939,3990.769287,3732.307617,0.000000,3.000000,73.000000,,,,0.000000,4.000000,0.000000,4.000000,4.000000,4.000000,66.666664,,,,,,,,,,,,,,,,,,,
1618539828.390337,46.000000,0.000000,3538.974365,4811.794922,3900.000000,3990.256348,3728.718018,0.000000,3.000000,73.000000,,,,0.000000,4.000000,0.000000,4.000000,4.000000,4.000000,66.666664,,,,,,,,23.000000,0.000000,0.669384,0.222900,0.581543,-0.405029,0.979995,0.169924,-0.223148,5.413460,2.915008,14.115264
1618539828.398154,47.000000,0.000000,3532.820557,4801.025879,3889.230713,3987.692383,3728.205078,0.000000,3.000000,73.000000,,,,0.000000,4.000000,0.000000,4.000000,4.000000,4.000000,66.666664,,,,,,,,,,,,,,,,,,,
1618539828.405971,48.000000,0.000000,3533.333252,4753.333496,3883.076904,3988.718018,3727.179443,0.000000,3.000000,73.000000,,,,0.000000,4.000000,0.000000,4.000000,4.000000,4.000000,66.666664,,,,,,,,24.000000,0.000000,0.669302,0.223145,0.581543,-0.405029,0.969741,0.163577,-0.219730,7.803067,1.307569,14.079492
1618539828.413788,49.000000,0.000000,3538.974365,4731.282227,3886.153809,3989.230713,3719.487061,0.000000,3.000000,73.000000,,,,0.000000,4.000000,0.000000,4.000000,4.000000,4.000000,66.666664,,,,,,,,,,,,,,,,,,,
1618539828.421605,50.000000,0.000000,3546.153809,4773.846191,3897.435791,3987.179443,3723.589844,0.000000,3.000000,73.000000,,,,0.000000,4.000000,0.000000,4.000000,4.000000,4.000000,66.666664,,,,,,,,25.000000,0.000000,0.669662,0.223145,0.581299,-0.404785,0.966323,0.149416,-0.210452,8.159252,-0.079311,14.047296
1618539828.429422,51.000000,0.000000,3551.794922,4819.487305,3897.435791,3977.435791,3734.871826,0.000000,3.000000,73.000000,,,,0.000000,4.000000,0.000000,4.000000,4.000000,4.000000,66.666664,,,,,,,,,,,,,,,,,,,
1618539828.437239,52.000000,0.000000,3547.179443,4826.153809,3884.615479,3964.102539,3727.692383,0.000000,3.000000,73.000000,,,,0.000000,4.000000,0.000000,4.000000,4.000000,4.000000,66.666664,,,,,,,,26.000000,0.000000,0.669581,0.223389,0.581299,-0.404785,0.978042,0.157717,-0.223148,8.420003,-1.387318,14.078135
1618539828.444956,53.000000,0.000000,3544.102539,4785.128418,3878.974365,3965.128174,3721.538574,0.000000,3.000000,73.000000,,,,0.000000,4.000000,0.000000,4.000000,4.000000,4.000000,66.666664,,,,,,,,,,,,,,,,,,,
1618539828.452772,54.000000,0.000000,3549.743652,4754.358887,3880.000000,3974.871826,3727.692383,0.000000,3.000000,73.000000,,,,0.000000,4.000000,0.000000,4.000000,4.000000,4.000000,66.666664,,,,,,,,27.000000,0.000000,0.669499,0.223633,0.581299,-0.404785,0.976089,0.164553,-0.234867,8.594864,1.263660,14.046075
1618539828.460589,55.000000,0.000000,3547.692383,4760.512695,3876.410156,3979.487061,3720.000000,0.000000,3.000000,73.000000,,,,0.000000,4.000000,0.000000,4.000000,4.000000,4.000000,66.666664,,,,,,,,,,,,,,,,,,,
1618539828.468406,56.000000,0.000000,3546.666748,4790.769043,3875.384521,3978.461426,3713.846191,0.000000,3.000000,73.000000,,,,0.000000,4.000000,0.000000,4.000000,4.000000,4.000000,66.666664,,,,,,,,28.000000,0.000000,0.669647,0.223633,0.581299,-0.404541,0.967300,0.153811,-0.225101,8.871870,-0.059014,14.077036
1618539828.476223,57.000000,0.000000,3555.897461,4836.922852,3877.435791,3976.410156,3723.076904,0.000000,3.000000,73.000000,,,,0.000000,4.000000,0.000000,4.000000,4.000000,4.000000,66.666664,,,,,,,,,,,,,,,,,,,
1618539828.484040,58.000000,0.000000,3562.564209,4802.051270,3876.923096,3976.923096,3725.641113,0.000000,3.000000,73.000000,,,,0.000000,4.000000,0.000000,4.000000,4.000000,4.000000,66.666664,,,,,,,,29.000000,0.000000,0.669647,0.223633,0.581299,-0.404541,0.966812,0.140139,-0.228031,5.292991,2.638579,14.045086
1618539828.491856,59.000000,0.000000,3564.102539,4724.615234,3881.025635,3976.410156,3720.512939,0.000000,3.000000,73.000000,,,,0.000000,4.000000,0.000000,4.000000,4.000000,4.000000,66.666664,,,,,,,,,,,,,,,,,,,
1618539828.499673,60.000000,0.000000,3570.769287,4755.897461,3891.794922,3969.230713,3723.076904,0.000000,3.000000,73.000000,,,,0.000000,4.000000,0.000000,4.000000,4.000000,4.000000,66.666664,,,,,,,,30.000000,0.000000,0.669647,0.223633,0.581299,-0.404541,0.970718,0.160159,-0.219242,3.986092,1.118599,14.016331
1618539828.507390,61.000000,0.000000,3579.487061,4813.846191,3895.897461,3967.179443,3725.128174,0.000000,3.000000,73.000000,,,,0.000000,4.000000,0.000000,4.000000,4.000000,4.000000,66.666664,,,,,,,,,,,,,,,,,,,
1618539828.515207,62.000000,0.000000,3586.666748,4797.948730,3892.820557,3972.820557,3716.410156,0.000000,3.000000,73.000000,,,,0.000000,4.000000,0.000000,4.000000,4.000000,4.000000,66.666664,,,,,,,,31.000000,0.000000,0.669565,0.223877,0.581299,-0.404541,0.968765,0.169924,-0.220218,4.664160,-0.309199,13.990451
1618539828.523024,63.000000,0.000000,3600.000000,4784.102539,3897.435791,3971.794922,3704.615479,0.000000,3.000000,73.000000,,,,0.000000,4.000000,0.000000,4.000000,4.000000,4.000000,66.666664,,,,,,,,,,,,,,,,,,,
1618539828.530841,64.000000,0.000000,3614.358887,4751.282227,3904.615479,3972.307617,3690.769287,450.000000,3.000000,73.000000,,,,0.000000,4.000000,0.000000,4.000000,4.000000,4.000000,66.666664,,,,,,,,32.000000,0.000000,0.669565,0.223877,0.581299,-0.404541,0.973648,0.162600,-0.224125,7.248327,-1.474587,13.967159
1618539828.538658,65.000000,0.000000,3615.897461,4722.563965,3898.974365,3977.948730,3675.384521,450.000000,3.000000,73.000000,,,,0.000000,4.000000,0.000000,4.000000,4.000000,4.000000,66.666664,,,,,,,,,,,,,,,,,,,
1618539828.546475,66.000000,0.000000,3616.410156,4757.436035,3893.333252,3977.948730,3672.820557,16251.000000,3.000000,73.000000,,,,0.000000,4.000000,0.000000,4.000000,4.000000,4.000000,66.666664,,,,,,,,33.000000,0.000000,0.669647,0.223633,0.581299,-0.404541,0.970718,0.160159,-0.219242,3.771988,1.364563,13.886381
1618539828.554292,67.000000,0.000000,3620.000000,4785.128418,3898.461426,3975.384521,3674.871826,450.000000,3.000000,73.000000,,,,0.000000,4.000000,0.000000,4.000000,4.000000,4.000000,66.666664,,,,,,,,,,,,,,,,,,,
1618539828.562110,68.000000,0.000000,3620.512939,4780.512695,3907.179443,3974.358887,3669.230713,0.000000,3.000000,73.000000,,,,0.000000,4.000000,0.000000,4.000000,4.000000,4.000000,66.666664,,,,,,,,34.000000,0.000000,0.669565,0.223877,0.581299,-0.404541,0.973648,0.162600,-0.224125,6.445373,0.031800,13.873497
1618539828.569927,69.000000,0.000000,3631.794922,4811.282227,3906.666748,3969.743652,3670.256348,450.000000,3.000000,73.000000,,,,0.000000,4.000000,0.000000,4.000000,4.000000,4.000000,66.666664,,,,,,,,,,,,,,,,,,,
1618539828.577744,70.000000,0.000000,3650.769287,4821.025879,3902.564209,3972.820557,3682.051270,16227.000000,3.000000,73.000000,,,,0.000000,4.000000,0.000000,4.000000,4.000000,4.000000,66.666664,,,,,,,,35.000000,0.000000,0.669565,0.223877,0.581299,-0.404541,0.972183,0.157717,-0.233402,6.877512,-1.227503,13.861900
1618539828.585460,71.000000,0.000000,3652.820557,4747.179688,3905.128174,3986.153809,3685.128174,450.000000,3.000000,73.000000,,,,0.000000,4.000000,0.000000,4.000000,4.000000,4.000000,66.666664,,,,,,,,,,,,,,,,,,,
1618539828.593276,72.000000,0.000000,3652.820557,4718.461426,3909.743652,3991.794922,3690.769287,450.000000,3.000000,73.000000,,,,0.000000,4.000000,0.000000,4.000000,4.000000,4.000000,66.666664,,,,,,,,36.000000,0.000000,0.669565,0.223877,0.581299,-0.404541,0.975601,0.169924,-0.217288,3.617700,1.407493,13.851464
1618539828.601092,73.000000,0.000000,3672.307617,4798.461426,3912.820557,3983.589844,3710.769287,16111.000000,3.000000,73.000000,,,,0.000000,4.000000,0.000000,4.000000,4.000000,4.000000,66.666664,,,,,,,,,,,,,,,,,,,
1618539828.608908,74.000000,0.000000,3686.153809,4848.717773,3912.820557,3967.179443,3720.512939,450.000000,3.000000,73.000000,,,,0.000000,4.000000,0.000000,4.000000,4.000000,4.000000,66.666664,,,,,,,,37.000000,0.000000,0.669712,0.223877,0.581299,-0.404297,0.970718,0.156741,-0.220218,4.452238,-0.228641,13.662624
1618539828.616625,75.000000,0.000000,3674.358887,4805.641113,3907.692383,3967.179443,3708.205078,16243.000000,3.000000,73.000000,,,,0.000000,4.000000,0.000000,4.000000,4.000000,4.000000,66.666664,,,,,,,,,,,,,,,,,,,
1618539828.624442,76.000000,0.000000,3672.820557,4774.358887,3909.230713,3985.641113,3704.102539,450.000000,3.000000,73.000000,,,,0.000000,4.000000,0.000000,4.000000,4.000000,4.000000,66.666664,,,,,,,,38.000000,0.000000,0.669924,0.223877,0.581055,-0.404297,0.962417,0.148928,-0.210452,1.315322,2.306469,13.612300
1618539828.632259,77.000000,0.000000,3688.718018,4762.051270,3922.564209,3992.307617,3709.230713,450.000000,3.000000,73.000000,,,,0.000000,4.000000,0.000000,4.000000,4.000000,4.000000,66.666664,,,,,,,,,,,,,,,,,,,
1618539828.640076,78.000000,0.000000,3686.153809,4764.615234,3926.666748,3985.641113,3705.641113,450.000000,3.000000,73.000000,,,,0.000000,4.000000,0.000000,4.000000,4.000000,4.000000,66.666664,,,,,,,,39.000000,0.000000,0.669924,0.223877,0.581055,-0.404297,0.969741,0.172366,-0.220706,0.346375,0.700068,13.507193
1618539828.647893,79.000000,0.000000,3668.205078,4813.846191,3911.794922,3983.076904,3698.461426,16243.000000,3.000000,73.000000,,,,0.000000,4.000000,0.000000,4.000000,4.000000,4.000000,66.666664,,,,,,,,,,,,,,,,,,,
1618539828.655710,80.000000,0.000000,3664.615479,4812.820313,3907.179443,3986.153809,3694.871826,450.000000,3.000000,73.000000,,,,0.000000,4.000000,0.000000,4.000000,4.000000,4.000000,66.666664,,,,,,,,40.000000,0.000000,0.669712,0.223877,0.581299,-0.404297,0.976089,0.146487,-0.224613,-0.406047,-0.685876,13.472412
1618539828.663527,81.000000,0.000000,3672.307617,4768.205078,3914.871826,3986.666748,3685.641113,450.000000,3.000000,73.000000,,,,0.000000,4.000000,0.000000,4.000000,4.000000,4.000000,66.666664,,,,,,,,,,,,,,,,,,,
1618539828.671344,82.000000,0.000000,3671.794922,4796.922852,3909.743652,3977.948730,3678.974365,450.000000,3.000000,73.000000,,,,0.000000,4.000000,0.000000,4.000000,4.000000,4.000000,66.666664,,,,,,,,41.000000,0.000000,0.669712,0.223877,0.581299,-0.404297,0.974136,0.163577,-0.226078,-1.023411,-1.933227,13.620555
1618539828.679161,83.000000,0.000000,3676.923096,4848.205078,3898.461426,3969.230713,3685.128174,16243.000000,3.000000,73.000000,,,,0.000000,4.000000,0.000000,4.000000,4.000000,4.000000,66.666664,,,,,,,,,,,,,,,,,,,
1618539828.686878,84.000000,0.000000,3691.794922,4827.692383,3900.512939,3975.384521,3699.487061,450.000000,3.000000,73.000000,,,,0.000000,4.000000,0.000000,4.000000,4.000000,4.000000,66.666664,,,,,,,,42.000000,0.000000,0.669778,0.224121,0.581299,-0.404053,0.972183,0.152346,-0.223148,-3.732392,1.011603,13.634253
1618539828.694696,85.000000,0.000000,3700.512939,4795.897461,3910.769287,3984.102539,3708.205078,450.000000,3.000000,73.000000,,,,0.000000,4.000000,0.000000,4.000000,4.000000,4.000000,66.666664,,,,,,,,,,,,,,,,,,,
1618539828.702513,86.000000,0.000000,3707.179443,4784.102539,3923.076904,3975.897461,3712.307617,450.000000,3.000000,73.000000,,,,0.000000,4.000000,0.000000,4.000000,4.000000,4.000000,66.666664,,,,,,,,43.000000,0.000000,0.669778,0.224121,0.581299,-0.404053,0.964858,0.140139,-0.220218,-6.050845,3.482503,13.706396
1618539828.710330,87.000000,0.000000,3722.564209,4781.025879,3931.794922,3966.153809,3725.128174,16243.000000,3.000000,73.000000,,,,0.000000,4.000000,0.000000,4.000000,4.000000,4.000000,66.666664,,,,,,,,,,,,,,,,,,,
1618539828.718147,88.000000,0.000000,3731.281982,4801.025879,3931.794922,3960.000000,3737.948730,450.000000,3.000000,73.000000,,,,0.000000,4.000000,0.000000,4.000000,4.000000,4.000000,66.666664,0.937500,50.000000,3.000000,0.000000,3.000000,3.000000,3.000000,44.000000,0.000000,0.669908,0.224365,0.581055,-0.404053,0.963394,0.150881,-0.216800,-4.249453,1.758499,13.711510
1618539828.725964,89.000000,0.000000,3728.718018,4749.743652,3923.076904,3947.179443,3730.256348,450.000000,3.000000,73.000000,,,,0.000000,4.000000,0.000000,4.000000,4.000000,4.000000,66.666664,,,,,,,,,,,,,,,,,,,
1618539828.733781,90.000000,0.000000,3738.461426,4739.487305,3919.487061,3945.641113,3725.641113,450.000000,3.000000,73.000000,,,,0.000000,4.000000,0.000000,4.000000,4.000000,4.000000,66.666664,,,,,,,,45.000000,0.000000,0.669826,0.224609,0.581055,-0.404053,0.966812,0.165042,-0.224613,-6.456384,3.975264,13.775928
1618539828.741598,91.000000,0.000000,3753.846191,4851.282227,3924.102539,3951.794922,3742.564209,16243.000000,3.000000,73.000000,,,,0.000000,4.000000,0.000000,4.000000,4.000000,4.000000,66.666664,,,,,,,,,,,,,,,,,,,
1618539828.749415,92.000000,0.000000,3760.512939,4849.743652,3925.128174,3943.589844,3758.974365,450.000000,3.000000,73.000000,,,,0.000000,4.000000,0.000000,4.000000,4.000000,4.000000,66.666664,,,,,,,,46.000000,0.000000,0.669826,0.224609,0.581055,-0.404053,0.978042,0.150393,-0.220218,-4.674253,6.030168,13.774089
1618539828.757132,93.000000,0.000000,3766.153809,4778.461426,3927.692383,3945.128174,3765.128174,450.000000,3.000000,73.000000,,,,0.000000,4.000000,0.000000,4.000000,4.000000,4.000000,66.666664,,,,,,,,,,,,,,,,,,,
1618539828.764949,94.000000,0.000000,3770.769287,4772.820313,3930.769287,3954.871826,3769.230713,450.000000,3.000000,73.000000,,,,0.000000,4.000000,0.000000,4.000000,4.000000,4.000000,66.666664,,,,,,,,47.000000,0.000000,0.669974,0.224609,0.581055,-0.403809,0.964858,0.154299,-0.227543,-4.984428,7.999212,13.772433
1618539828.772766,95.000000,0.000000,3776.923096,4744.102539,3927.179443,3944.615479,3774.871826,16243.000000,3.000000,73.000000,,,,0.000000,4.000000,0.000000,4.000000,4.000000,4.000000,66.666664,,,,,,,,,,,,,,,,,,,
1618539828.780583,96.000000,0.000000,3793.846191,4746.666504,3928.205078,3939.487061,3789.230713,450.000000,3.000000,73.000000,,,,0.000000,4.000000,0.000000,4.000000,4.000000,4.000000,66.666664,,,,,,,,48.000000,0.000000,0.669908,0.224365,0.581055,-0.404053,0.972671,0.144045,-0.222660,-5.323400,5.883352,13.770943
1618539828.788400,97.000000,0.000000,3810.256348,4847.179688,3938.461426,3956.410156,3808.205078,450.000000,3.000000,73.000000,,,,0.000000,4.000000,0.000000,4.000000,4.000000,4.000000,66.666664,,,,,,,,,,,,,,,,,,,
1618539828.796217,98.000000,0.000000,3813.846191,4884.102539,3936.410156,3967.692383,3815.897461,450.000000,3.000000,73.000000,,,,0.000000,4.000000,0.000000,4.000000,4.000000,4.000000,66.666664,,,,,,,,49.000000,0.000000,0.669908,0.224365,0.581055,-0.404053,0.970230,0.145510,-0.215335,-3.654568,7.867078,13.649971
1618539828.804034,99.000000,0.000000,3815.384521,4823.077148,3928.718018,3967.179443,3812.820557,16243.000000,3.000000,73.000000,,,,0.000000,4.000000,0.000000,4.000000,4.000000,4.000000,66.666664,,,,,,,,,,,,,,,,,,,
1618539828.811851,100.000000,0.000000,3816.923096,4789.230957,3930.256348,3956.923096,3808.718018,450.000000,3.000000,73.000000,,,,0.000000,4.000000,0.000000,4.000000,4.000000,4.000000,66.666664,,,,,,,,50.000000,0.000000,0.669990,0.224121,0.581055,-0.404053,0.957046,0.156252,-0.225589,-2.152619,5.704617,13.840174
1618539828.819668,101.000000,0.000000,3816.410156,4767.179688,3938.461426,3945.128174,3816.410156,450.000000,3.000000,73.000000,,,,0.000000,4.000000,0.000000,4.000000,4.000000,4.000000,66.666664,,,,,,,,,,,,,,,,,,,
1618539828.827384,102.000000,0.000000,3830.256348,4785.641113,3947.692383,3954.871826,3838.974365,450.000000,3.000000,73.000000,,,,0.000000,4.000000,0.000000,4.000000,4.000000,4.000000,66.666664,,,,,,,,51.000000,0.000000,0.669843,0.224121,0.581055,-0.404297,0.984390,0.149416,-0.232914,-0.800865,3.758402,13.772095
1618539828.835199,103.000000,0.000000,3847.179443,4867.692383,3947.179443,3975.384521,3856.923096,16243.000000,3.000000,73.000000,,,,0.000000,4.000000,0.000000,4.000000,4.000000,4.000000,66.666664,,,,,,,,,,,,,,,,,,,
1618539828.842916,104.000000,0.000000,3852.307617,4847.179688,3947.692383,3978.974365,3865.641113,450.000000,3.000000,73.000000,,,,0.000000,4.000000,0.000000,4.000000,4.000000,4.000000,66.666664,,,,,,,,52.000000,0.000000,0.669924,0.223877,0.581055,-0.404297,0.971206,0.148928,-0.229007,-3.472286,5.954622,13.651008
1618539828.850732,105.000000,0.000000,3863.076904,4768.205078,3957.948730,3972.307617,3877.948730,450.000000,3.000000,73.000000,,,,0.000000,4.000000,0.000000,4.000000,4.000000,4.000000,66.666664,,,,,,,,,,,,,,,,,,,
1618539828.858548,106.000000,0.000000,3873.846191,4809.743652,3956.410156,3968.718018,3882.564209,450.000000,3.000000,73.000000,,,,0.000000,4.000000,0.000000,4.000000,4.000000,4.000000,66.666664,,,,,,,,53.000000,0.000000,0.669777,0.223877,0.581055,-0.404541,0.967788,0.162112,-0.227543,-2.048381,8.050852,13.661660
1618539828.866465,107.000000,0.000000,3875.384521,4852.307617,3944.102539,3961.025635,3873.846191,16243.000000,3.000000,73.000000,,,,0.000000,4.000000,0.000000,4.000000,4.000000,4.000000,66.666664,,,,,,,,,,,,,,,,,,,
1618539828.874282,108.000000,0.000000,3880.000000,4835.897461,3943.589844,3955.897461,3874.871826,450.000000,3.000000,73.000000,,,,0.000000,4.000000,0.000000,4.000000,4.000000,4.000000,66.666664,,,,,,,,54.000000,0.000000,0.669777,0.223877,0.581055,-0.404541,0.982437,0.144533,-0.223148,-0.707051,5.870013,13.611432
1618539828.882099,109.000000,0.000000,3888.205078,4830.256348,3952.307617,3961.538574,3889.230713,450.000000,3.000000,73.000000,,,,0.000000,4.000000,0.000000,4.000000,4.000000,4.000000,66.666664,,,,,,,,,,,,,,,,,,,
1618539828.889917,110.000000,0.000000,3897.948730,4812.307617,3953.846191,3967.692383,3902.564209,450.000000,3.000000,73.000000,,,,0.000000,4.000000,0.000000,4.000000,4.000000,4.000000,66.666664,,,,,,,,55.000000,0.000000,0.669777,0.223877,0.581055,-0.404541,0.969253,0.163088,-0.224125,0.559962,7.855072,13.626042
1618539828.897734,111.000000,0.000000,3906.666748,4790.769043,3948.205078,3973.333252,3915.897461,16243.000000,3.000000,73.000000,,,,0.000000,4.000000,0.000000,4.000000,4.000000,4.000000,66.666664,,,,,,,,,,,,,,,,,,,
1618539828.905551,112.000000,0.000000,3903.589844,4764.615234,3941.538574,3981.025635,3918.974365,450.000000,3.000000,73.000000,,,,0.000000,4.000000,0.000000,4.000000,4.000000,4.000000,66.666664,,,,,,,,56.000000,0.000000,0.669777,0.223877,0.581055,-0.404541,0.967788,0.162112,-0.227543,1.760088,9.761256,13.818638
1618539828.913369,113.000000,0.000000,3899.487061,4735.897461,3945.128174,3982.564209,3915.897461,450.000000,3.000000,73.000000,,,,0.000000,4.000000,0.000000,4.000000,4.000000,4.000000,66.666664,,,,,,,,,,,,,,,,,,,
1618539828.921186,114.000000,0.000000,3912.307617,4772.307617,3958.974365,3982.564209,3930.256348,450.000000,3.000000,73.000000,,,,0.000000,4.000000,0.000000,4.000000,4.000000,4.000000,66.666664,,,,,,,,57.000000,0.000000,0.669777,0.223877,0.581055,-0.404541,0.966323,0.173831,-0.214359,2.780387,11.417007,13.872343
1618539828.929003,115.000000,0.000000,3926.153809,4831.794922,3972.820557,3987.179443,3951.794922,16243.000000,3.000000,73.000000,,,,0.000000,4.000000,0.000000,4.000000,4.000000,4.000000,66.666664,,,,,,,,,,,,,,,,,,,
1618539828.936920,116.000000,0.000000,3934.358887,4799.487305,3976.923096,3988.718018,3958.974365,450.000000,3.000000,73.000000,,,,0.000000,4.000000,0.000000,4.000000,4.000000,4.000000,66.666664,,,,,,,,58.000000,0.000000,0.669777,0.223877,0.581055,-0.404541,0.980972,0.158694,-0.226566,3.579025,9.019183,13.860862
1618539828.944737,117.000000,0.000000,3939.487061,4732.307617,3970.769287,3978.974365,3956.410156,450.000000,3.000000,73.000000,,,,0.000000,4.000000,0.000000,4.000000,4.000000,4.000000,66.666664,,,,,,,,,,,,,,,,,,,
1618539828.952554,118.000000,0.000000,3942.051270,4753.333496,3971.794922,3971.281982,3955.897461,450.000000,3.000000,73.000000,,,,0.000000,4.000000,0.000000,4.000000,4.000000,4.000000,66.666664,,,,,,,,59.000000,0.000000,0.669843,0.224121,0.581055,-0.404297,0.973648,0.155764,-0.227054,0.589246,10.689326,13.790714
1618539828.960371,119.000000,0.000000,3956.410156,4806.153809,3978.461426,3980.000000,3964.102539,16243.000000,3.000000,73.000000,,,,0.000000,4.000000,0.000000,4.000000,4.000000,4.000000,66.666664,,,,,,,,,,,,,,,,,,,
1618539828.968188,120.000000,0.000000,3971.794922,4803.077148,3976.410156,3987.179443,3979.487061,450.000000,3.000000,73.000000,,,,0.000000,4.000000,0.000000,4.000000,4.000000,4.000000,66.666664,,,,,,,,60.000000,0.000000,0.669843,0.224121,0.581055,-0.404297,0.975113,0.159670,-0.210941,-2.101555,12.192454,13.907026
1618539828.976005,121.000000,0.000000,3978.974365,4824.615234,3974.871826,3987.692383,3984.102539,450.000000,3.000000,73.000000,,,,0.000000,4.000000,0.000000,4.000000,4.000000,4.000000,66.666664,,,,,,,,,,,,,,,,,,,
1618539828.983822,122.000000,0.000000,3990.769287,4860.000000,3981.538574,3991.794922,3982.564209,450.000000,3.000000,73.000000,,,,0.000000,4.000000,0.000000,4.000000,4.000000,4.000000,66.666664,,,,,,,,61.000000,0.000000,0.669990,0.224121,0.581055,-0.404053,0.978042,0.148440,-0.225101,-0.814723,9.537640,14.071524
1618539828.991639,123.000000,0.000000,3998.461426,4812.307617,3977.948730,3990.256348,3987.692383,16243.000000,3.000000,73.000000,,,,0.000000,4.000000,0.000000,4.000000,4.000000,4.000000,66.666664,,,,,,,,,,,,,,,,,,,
1618539828.999456,124.000000,0.000000,3990.769287,4759.487305,3976.923096,3990.256348,3992.820557,450.000000,3.000000,73.000000,,,,0.000000,4.000000,0.000000,4.000000,4.000000,4.000000,66.666664,,,,,,,,62.000000,0.000000,0.670137,0.224121,0.581055,-0.403809,0.964370,0.150393,-0.222171,0.283611,7.327753,13.980309
1618539829.007373,125.000000,0.000000,3986.666748,4785.641113,3983.589844,3992.820557,3996.923096,450.000000,3.000000,73.000000,,,,0.000000,4.000000,0.000000,4.000000,4.000000,4.000000,66.666664,,,,,,,,,,,,,,,,,,,
1618539829.015190,126.000000,0.000000,3994.358887,4856.922852,3988.205078,3990.256348,4006.666748,450.000000,3.000000,73.000000,,,,0.000000,4.000000,0.000000,4.000000,4.000000,4.000000,66.666664,,,,,,,,63.000000,0.000000,0.670055,0.224365,0.581055,-0.403809,0.966323,0.153323,-0.220218,1.391742,5.338855,13.898216
1618539829.023007,127.000000,0.000000,4009.230713,4868.205078,3994.871826,3993.846191,4023.076904,238.000000,3.000000,73.000000,,,,0.000000,4.000000,0.000000,4.000000,4.000000,4.000000,66.666664,,,,,,,,,,,,,,,,,,,
1618539829.030824,0.000000,0.000000,4007.179443,4806.153809,3982.564209,3994.871826,4014.358887,450.000000,3.000000,73.000000,,,,0.000000,4.000000,0.000000,4.000000,4.000000,4.000000,66.666664,,,,,,,,0.000000,0.000000,0.669991,0.224365,0.581299,-0.403564,0.972671,0.156741,-0.218753,2.329244,3.608662,13.824332
1618539829.038641,1.000000,0.000000,4000.000000,4800.000000,3965.128174,3987.179443,3994.871826,450.000000,3.000000,73.000000,,,,0.000000,4.000000,0.000000,4.000000,4.000000,4.000000,66.666664,,,,,,,,,,,,,,,,,,,
1618539829.046458,2.000000,0.000000,4030.256348,4882.051270,3990.256348,4000.000000,4020.512939,16259.000000,3.000000,73.000000,,,,0.000000,4.000000,0.000000,4.000000,4.000000,4.000000,66.666664,,,,,,,,1.000000,0.000000,0.669991,0.224365,0.581299,-0.403564,0.970718,0.155276,-0.219242,3.113181,1.812227,13.877468
1618539829.054275,3.000000,0.000000,4071.281982,4900.000000,4032.820557,4030.256348,4065.128174,450.000000,3.000000,73.000000,,,,0.000000,4.000000,0.000000,4.000000,4.000000,4.000000,66.666664,,,,,,,,,,,,,,,,,,,
1618539829.062092,4.000000,0.000000,4073.846191,4838.461426,4037.948730,4038.974365,4067.692383,0.000000,3.000000,73.000000,,,,0.000000,4.000000,0.000000,4.000000,4.000000,4.000000,66.666664,,,,,,,,2.000000,0.000000,0.669779,0.224365,0.581543,-0.403564,0.974624,0.154299,-0.229496,-0.009459,4.083435,13.925290
1618539829.069909,5.000000,0.000000,4060.512939,4800.512695,4025.641113,4027.692383,4048.718018,450.000000,3.000000,73.000000,,,,0.000000,4.000000,0.000000,4.000000,4.000000,4.000000,66.666664,,,,,,,,,,,,,,,,,,,
1618539829.077826,6.000000,0.000000,4058.974365,4788.717773,4027.179443,4022.051270,4047.692383,16214.000000,3.000000,73.000000,,,,0.000000,4.000000,0.000000,4.000000,4.000000,4.000000,66.666664,,,,,,,,3.000000,0.000000,0.669861,0.224121,0.581543,-0.403564,0.973159,0.158694,-0.226566,3.101886,2.418968,13.729069
1618539829.085643,7.000000,0.000000,4059.487061,4776.410156,4028.718018,4023.076904,4049.743652,450.000000,3.000000,73.000000,,,,0.000000,4.000000,0.000000,4.000000,4.000000,4.000000,66.666664,,,,,,,,,,,,,,,,,,,
1618539829.093460,8.000000,0.000000,4054.871826,4781.025879,4025.641113,4024.102539,4038.461426,450.000000,3.000000,73.000000,,,,0.000000,4.000000,0.000000,4.000000,4.000000,4.000000,66.666664,,,,,,,,4.000000,0.000000,0.669796,0.224121,0.581787,-0.403320,0.955581,0.152346,-0.220706,3.868374,0.920949,13.791730
1618539829.101277,9.000000,0.000000,4048.205078,4830.256348,4020.000000,4024.615479,4028.718018,16112.000000,3.000000,73.000000,,,,0.000000,4.000000,0.000000,4.000000,4.000000,4.000000,66.666664,,,,,,,,,,,,,,,,,,,
1618539829.109094,10.000000,0.000000,4051.794922,4884.102539,4014.358887,4029.230713,4041.538574,450.000000,3.000000,73.000000,,,,0.000000,4.000000,0.000000,4.000000,4.000000,4.000000,66.666664,,,,,,,,5.000000,0.000000,0.669796,0.224121,0.581787,-0.403320,0.973159,0.151858,-0.220706,6.591935,-0.367453,13.907942
1618539829.116911,11.000000,0.000000,4066.153809,4880.000000,4018.461426,4040.512939,4063.589844,16229.000000,3.000000,73.000000,,,,0.000000,4.000000,0.000000,4.000000,4.000000,4.000000,66.666664,,,,,,,,,,,,,,,,,,,
1618539829.124728,12.000000,0.000000,4073.333252,4806.153809,4024.102539,4044.615479,4067.692383,450.000000,3.000000,73.000000,,,,0.000000,4.000000,0.000000,4.000000,4.000000,4.000000,66.666664,,,,,,,,6.000000,0.000000,0.669583,0.224121,0.582031,-0.403320,0.969741,0.153811,-0.223636,7.129049,-1.586831,13.833085
1618539829.132546,13.000000,0.000000,4090.256348,4797.948730,4035.897461,4049.230713,4079.487061,450.000000,3.000000,73.000000,,,,0.000000,4.000000,0.000000,4.000000,4.000000,4.000000,66.666664,,,,,,,,,,,,,,,,,,,
1618539829.140363,14.000000,0.000000,4134.358887,4891.282227,4069.743652,4077.435791,4124.102539,450.000000,3.000000,73.000000,,,,0.000000,4.000000,0.000000,4.000000,4.000000,4.000000,66.666664,,,,,,,,7.000000,0.000000,0.669665,0.223877,0.582031,-0.403320,0.967300,0.146975,-0.209964,7.552636,1.084098,13.825530
1618539829.148180,15.000000,0.000000,4170.256348,4912.307617,4096.922852,4097.436035,4160.512695,16229.000000,3.000000,73.000000,,,,0.000000,4.000000,0.000000,4.000000,4.000000,4.000000,66.666664,,,,,,,,,,,,,,,,,,,
1618539829.155897,16.000000,0.000000,4185.128418,4834.358887,4110.769043,4094.358887,4172.820313,0.000000,3.000000,73.000000,,,,0.000000,4.000000,0.000000,4.000000,4.000000,4.000000,66.666664,,,,,,,,8.000000,0.000000,0.669665,0.223877,0.582031,-0.403320,0.977554,0.152834,-0.221195,9.847957,-0.280435,13.699100
1618539829.163714,17.000000,0.000000,4221.538574,4778.974121,4142.051270,4110.769043,4200.512695,0.000000,3.000000,73.000000,,,,0.000000,4.000000,0.000000,4.000000,4.000000,4.000000,66.666664,,,,,,,,,,,,,,,,,,,
1618539829.171531,18.000000,0.000000,4262.051270,4833.333496,4174.358887,4138.461426,4233.333496,0.000000,3.000000,73.000000,,,,0.000000,4.000000,0.000000,4.000000,4.000000,4.000000,66.666664,,,,,,,,9.000000,0.000000,0.669665,0.223877,0.582031,-0.403320,0.982437,0.154299,-0.219242,9.880022,2.319669,13.645128
1618539829.179348,19.000000,0.000000,4271.794922,4881.538574,4179.487305,4142.563965,4249.230957,0.000000,3.000000,73.000000,,,,0.000000,4.000000,0.000000,4.000000,4.000000,4.000000,66.666664,,,,,,,,,,,,,,,,,,,
1618539829.187165,20.000000,0.000000,4291.794922,4817.948730,4187.692383,4143.589844,4272.307617,0.000000,3.000000,73.000000,,,,0.000000,4.000000,0.000000,4.000000,4.000000,4.000000,66.666664,,,,,,,,10.000000,0.000000,0.669665,0.223877,0.582031,-0.403320,0.972183,0.148928,-0.226566,9.968697,0.831580,13.656368
1618539829.194982,21.000000,0.000000,4328.205078,4790.256348,4214.871582,4157.436035,4305.641113,0.000000,3.000000,73.000000,,,,0.000000,4.000000,0.000000,4.000000,4.000000,4.000000,66.666664,,,,,,,,,,,,,,,,,,,
1618539829.202799,22.000000,0.000000,4354.358887,4840.000000,4225.641113,4164.615234,4333.846191,0.000000,3.000000,73.000000,,,,0.000000,4.000000,0.000000,4.000000,4.000000,4.000000,66.666664,,,,,,,,11.000000,0.000000,0.669665,0.223877,0.582031,-0.403320,0.975113,0.170901,-0.234379,6.280135,3.320483,13.726300
1618539829.210616,23.000000,0.000000,4390.256348,4831.794922,4217.436035,4165.128418,4373.333496,0.000000,3.000000,73.000000,,,,0.000000,4.000000,0.000000,4.000000,4.000000,4.000000,66.666664,,,,,,,,,,,,,,,,,,,
1618539829.218533,24.000000,0.000000,4431.794922,4813.846191,4216.922852,4160.000000,4409.743652,0.000000,3.000000,73.000000,,,,0.000000,4.000000,0.000000,4.000000,4.000000,4.000000,66.666664,0.968750,50.000000,3.000000,0.000000,3.000000,3.000000,3.000000,12.000000,0.000000,0.669518,0.223877,0.582031,-0.403564,0.974136,0.154788,-0.224125,4.934337,1.612681,13.729424
1618539829.226350,25.000000,0.000000,4460.512695,4846.153809,4223.077148,4149.230957,4416.922852,0.000000,3.000000,73.000000,,,,0.000000,4.000000,0.000000,4.000000,4.000000,4.000000,66.666664,,,,,,,,,,,,,,,,,,,
1618539829.234168,26.000000,0.000000,4488.717773,4882.051270,4215.897461,4154.871582,4424.102539,0.000000,3.000000,73.000000,,,,0.000000,4.000000,0.000000,4.000000,4.000000,4.000000,66.666664,,,,,,,,13.000000,0.000000,0.669436,0.224121,0.582031,-0.403564,0.975601,0.152346,-0.234379,7.551302,0.195290,13.732235
1618539829.241985,27.000000,0.000000,4508.205078,4900.512695,4203.589844,4166.666504,4445.641113,0.000000,3.000000,73.000000,,,,0.000000,4.000000,0.000000,4.000000,4.000000,4.000000,66.666664,,,,,,,,,,,,,,,,,,,
1618539829.249802,28.000000,0.000000,4524.615234,4842.051270,4215.897461,4158.461426,4460.512695,0.000000,3.000000,73.000000,,,,0.000000,4.000000,0.000000,4.000000,4.000000,4.000000,66.666664,,,,,,,,14.000000,0.000000,0.669453,0.223877,0.582275,-0.403320,0.975113,0.154788,-0.224125,7.872849,-1.140177,13.794580
1618539829.257619,29.000000,0.000000,4564.615234,4786.666504,4236.922852,4160.512695,4466.666504,0.000000,3.000000,73.000000,,,,0.000000,4.000000,0.000000,4.000000,4.000000,4.000000,66.666664,,,,,,,,,,,,,,,,,,,
1618539829.265437,30.000000,0.000000,4596.922852,4804.615234,4234.358887,4184.615234,4481.025879,0.000000,3.000000,73.000000,,,,0.000000,4.000000,0.000000,4.000000,4.000000,4.000000,66.666664,,,,,,,,15.000000,0.000000,0.669518,0.223877,0.582031,-0.403564,0.974136,0.154788,-0.224125,4.453688,1.605717,13.850691
1618539829.273254,31.000000,0.000000,4592.820313,4802.563965,4223.589844,4186.666504,4495.897461,0.000000,3.000000,73.000000,,,,0.000000,4.000000,0.000000,4.000000,4.000000,4.000000,66.666664,,,,,,,,,,,,,,,,,,,
1618539829.281071,32.000000,0.000000,4595.897461,4805.641113,4228.205078,4172.307617,4506.666504,0.000000,3.000000,73.000000,,,,0.000000,4.000000,0.000000,4.000000,4.000000,4.000000,66.666664,,,,,,,,16.000000,0.000000,0.669453,0.223877,0.582275,-0.403320,0.975113,0.154788,-0.224125,5.084996,0.129207,13.901191
1618539829.288889,33.000000,0.000000,4615.384766,4903.589844,4237.436035,4166.153809,4520.000000,0.000000,3.000000,73.000000,,,,0.000000,4.000000,0.000000,4.000000,4.000000,4.000000,66.666664,,,,,,,,,,,,,,,,,,,
1618539829.296805,34.000000,0.000000,4627.179688,4971.282227,4236.410156,4163.589844,4531.282227,0.000000,3.000000,73.000000,,,,0.000000,4.000000,0.000000,4.000000,4.000000,4.000000,66.666664,,,,,,,,17.000000,0.000000,0.669453,0.223877,0.582275,-0.403320,0.974624,0.151858,-0.221195,5.712988,-1.199652,13.827009
1618539829.304622,35.000000,0.000000,4642.051270,4853.846191,4231.794922,4172.307617,4540.512695,0.000000,3.000000,73.000000,,,,0.000000,4.000000,0.000000,4.000000,4.000000,4.000000,66.666664,,,,,,,,,,,,,,,,,,,
1618539829.312439,36.000000,0.000000,4661.025879,4762.563965,4231.282227,4192.820313,4545.641113,0.000000,3.000000,73.000000,,,,0.000000,4.000000,0.000000,4.000000,4.000000,4.000000,66.666664,,,,,,,,18.000000,0.000000,0.669453,0.223877,0.582275,-0.403320,0.970718,0.167483,-0.219730,6.278181,1.492374,13.640616
1618539829.320257,37.000000,0.000000,4665.128418,4864.615234,4236.410156,4193.333496,4533.333496,0.000000,3.000000,73.000000,,,,0.000000,4.000000,0.000000,4.000000,4.000000,4.000000,66.666664,,,,,,,,,,,,,,,,,,,
1618539829.328074,38.000000,0.000000,4665.641113,4961.538574,4238.974121,4181.025879,4518.974121,0.000000,3.000000,73.000000,,,,0.000000,4.000000,0.000000,4.000000,4.000000,4.000000,66.666664,,,,,,,,19.000000,0.000000,0.669469,0.223633,0.582520,-0.403076,0.980972,0.159670,-0.217288,6.786855,0.087014,13.712123
1618539829.335891,39.000000,0.000000,4680.000000,4878.461426,4236.410156,4182.563965,4518.461426,0.000000,3.000000,73.000000,,,,0.000000,4.000000,0.000000,4.000000,4.000000,4.000000,66.666664,,,,,,,,,,,,,,,,,,,
1618539829.343708,40.000000,0.000000,4695.897461,4758.461426,4230.769043,4178.974121,4515.897461,0.000000,3.000000,73.000000,,,,0.000000,4.000000,0.000000,4.000000,4.000000,4.000000,66.666664,,,,,,,,20.000000,0.000000,0.669535,0.223877,0.582520,-0.402832,0.969253,0.155276,-0.226566,7.244661,-1.237625,13.656849
1618539829.351525,41.000000,0.000000,4715.897461,4808.205078,4227.692383,4169.743652,4517.436035,0.000000,3.000000,73.000000,,,,0.000000,4.000000,0.000000,4.000000,4.000000,4.000000,66.666664,,,,,,,,,,,,,,,,,,,
1618539829.359342,42.000000,0.000000,4743.589844,4918.461426,4230.769043,4178.974121,4531.282227,0.000000,3.000000,73.000000,,,,0.000000,4.000000,0.000000,4.000000,4.000000,4.000000,66.666664,,,,,,,,21.000000,0.000000,0.669322,0.223877,0.582764,-0.402832,0.989273,0.148440,-0.216800,5.563149,-2.489616,13.427656
1618539829.367159,43.000000,0.000000,4758.974121,4887.692383,4236.922852,4184.102539,4530.769043,0.000000,3.000000,73.000000,,,,0.000000,4.000000,0.000000,4.000000,4.000000,4.000000,66.666664,,,,,,,,,,,,,,,,,,,
1618539829.374876,44.000000,0.000000,4767.179688,4822.051270,4239.487305,4171.794922,4519.487305,0.000000,3.000000,73.000000,,,,0.000000,4.000000,0.000000,4.000000,4.000000,4.000000,66.666664,,,,,,,,22.000000,0.000000,0.669387,0.224121,0.582764,-0.402588,0.960952,0.139162,-0.215335,4.348866,-3.436962,13.520459
1618539829.382693,45.000000,0.000000,4787.179688,4848.717773,4235.384766,4166.153809,4520.512695,0.000000,3.000000,73.000000,,,,0.000000,4.000000,0.000000,4.000000,4.000000,4.000000,66.666664,,,,,,,,,,,,,,,,,,,
1618539829.390510,46.000000,0.000000,4792.820313,4863.589844,4226.666504,4159.487305,4515.897461,0.000000,3.000000,73.000000,,,,0.000000,4.000000,0.000000,4.000000,4.000000,4.000000,66.666664,,,,,,,,23.000000,0.000000,0.669452,0.224365,0.582764,-0.402344,0.962905,0.150393,-0.212406,3.315825,-4.349389,13.544167
1618539829.398327,47.000000,0.000000,4776.922852,4834.358887,4219.487305,4135.384766,4492.307617,0.000000,3.000000,73.000000,,,,0.000000,4.000000,0.000000,4.000000,4.000000,4.000000,66.666664,,,,,,,,,,,,,,,,,,,
1618539829.406144,48.000000,0.000000,4775.384766,4829.743652,4217.948730,4126.153809,4482.563965,0.000000,3.000000,73.000000,,,,0.000000,4.000000,0.000000,4.000000,4.000000,4.000000,66.666664,,,,,,,,24.000000,0.000000,0.669665,0.224365,0.582520,-0.402344,0.966812,0.142580,-0.218265,0.352367,-1.342389,13.445872
1618539829.413961,49.000000,0.000000,4786.666504,4873.333496,4213.846191,4141.538574,4488.205078,0.000000,3.000000,73.000000,,,,0.000000,4.000000,0.000000,4.000000,4.000000,4.000000,66.666664,,,,,,,,,,,,,,,,,,,
1618539829.421778,50.000000,0.000000,4783.589844,4918.461426,4205.641113,4136.410156,4478.974121,0.000000,3.000000,73.000000,,,,0.000000,4.000000,0.000000,4.000000,4.000000,4.000000,66.666664,,,,,,,,25.000000,0.000000,0.669729,0.224609,0.582520,-0.402100,0.972183,0.160647,-0.216800,-2.494192,1.423726,13.357409
1618539829.429595,51.000000,0.000000,4785.641113,4920.000000,4206.153809,4114.358887,4463.077148,0.000000,3.000000,73.000000,,,,0.000000,4.000000,0.000000,4.000000,4.000000,4.000000,66.666664,,,,,,,,,,,,,,,,,,,
1618539829.437512,52.000000,0.000000,4798.461426,4869.743652,4210.256348,4122.051270,4457.436035,0.000000,3.000000,73.000000,,,,0.000000,4.000000,0.000000,4.000000,4.000000,4.000000,66.666664,,,,,,,,26.000000,0.000000,0.669729,0.224609,0.582520,-0.402100,0.970230,0.142092,-0.204593,-1.227912,0.025231,13.397421
1618539829.445329,53.000000,0.000000,4793.333496,4820.512695,4204.615234,4135.384766,4444.615234,0.000000,3.000000,73.000000,,,,0.000000,4.000000,0.000000,4.000000,4.000000,4.000000,66.666664,,,,,,,,,,,,,,,,,,,
1618539829.453146,54.000000,0.000000,4776.410156,4812.820313,4197.436035,4123.589844,4429.230957,0.000000,3.000000,73.000000,,,,0.000000,4.000000,0.000000,4.000000,4.000000,4.000000,66.666664,,,,,,,,27.000000,0.000000,0.669794,0.224854,0.582520,-0.401855,0.966323,0.144533,-0.212406,-3.916443,2.714399,13.373616
1618539829.460963,55.000000,0.000000,4769.743652,4850.256348,4190.256348,4125.128418,4430.769043,0.000000,3.000000,73.000000,,,,0.000000,4.000000,0.000000,4.000000,4.000000,4.000000,66.666664,,,,,,,,,,,,,,,,,,,
1618539829.468780,56.000000,0.000000,4774.871582,4925.128418,4184.615234,4143.077148,4429.743652,0.000000,3.000000,73.000000,,,,0.000000,4.000000,0.000000,4.000000,4.000000,4.000000,66.666664,,,,,,,,28.000000,0.000000,0.669794,0.224854,0.582520,-0.401855,0.969741,0.152346,-0.206546,-2.388307,1.127021,13.352193
1618539829.476597,57.000000,0.000000,4781.538574,4927.179688,4191.282227,4144.102539,4414.358887,0.000000,3.000000,73.000000,,,,0.000000,4.000000,0.000000,4.000000,4.000000,4.000000,66.666664,,,,,,,,,,,,,,,,,,,
1618539829.484414,58.000000,0.000000,4787.692383,4841.025879,4204.102539,4134.358887,4405.641113,0.000000,3.000000,73.000000,,,,0.000000,4.000000,0.000000,4.000000,4.000000,4.000000,66.666664,,,,,,,,29.000000,0.000000,0.669876,0.224609,0.582520,-0.401855,0.974136,0.166018,-0.220218,-2.986891,-0.301619,13.572173
1618539829.492231,59.000000,0.000000,4801.025879,4813.846191,4213.333496,4129.743652,4407.692383,0.000000,3.000000,73.000000,,,,0.000000,4.000000,0.000000,4.000000,4.000000,4.000000,66.666664,,,,,,,,,,,,,,,,,,,
1618539829.500048,60.000000,0.000000,4813.333496,4847.692383,4222.563965,4127.179688,4404.615234,0.000000,3.000000,73.000000,,,,0.000000,4.000000,0.000000,4.000000,4.000000,4.000000,66.666664,,,,,,,,30.000000,0.000000,0.669876,0.224609,0.582520,-0.401855,0.967300,0.139162,-0.207523,-3.525617,-1.527580,13.650525
1618539829.507865,61.000000,0.000000,4806.666504,4864.615234,4213.333496,4121.538574,4389.743652,0.000000,3.000000,73.000000,,,,0.000000,4.000000,0.000000,4.000000,4.000000,4.000000,66.666664,,,,,,,,,,,,,,,,,,,
1618539829.515682,62.000000,0.000000,4789.230957,4913.333496,4187.692383,4121.025879,4374.358887,0.000000,3.000000,73.000000,,,,0.000000,4.000000,0.000000,4.000000,4.000000,4.000000,66.666664,,,,,,,,31.000000,0.000000,0.669729,0.224609,0.582520,-0.402100,0.986343,0.158206,-0.208988,-5.864747,1.017793,13.661225
1618539829.523499,63.000000,0.000000,4784.615234,4951.282227,4188.205078,4134.358887,4364.102539,0.000000,3.000000,73.000000,,,,0.000000,4.000000,0.000000,4.000000,4.000000,4.000000,66.666664,,,,,,,,,,,,,,,,,,,
1618539829.531316,64.000000,0.000000,4779.487305,4891.794922,4220.512695,4146.153809,4345.641113,450.000000,3.000000,73.000000,,,,0.000000,4.000000,0.000000,4.000000,4.000000,4.000000,66.666664,,,,,,,,32.000000,0.000000,0.669811,0.224365,0.582520,-0.402100,0.959976,0.147951,-0.219242,-4.201595,-0.280294,13.730672
1618539829.539133,65.000000,0.000000,4759.487305,4883.077148,4246.153809,4146.153809,4316.922852,450.000000,3.000000,73.000000,,,,0.000000,4.000000,0.000000,4.000000,4.000000,4.000000,66.666664,,,,,,,,,,,,,,,,,,,
1618539829.546950,66.000000,0.000000,4736.922852,4937.948730,4261.025879,4144.615234,4288.717773,16214.000000,3.000000,73.000000,,,,0.000000,4.000000,0.000000,4.000000,4.000000,4.000000,66.666664,,,,,,,,33.000000,0.000000,0.669942,0.224609,0.582275,-0.402100,0.978531,0.152346,-0.218753,-2.704759,-1.448572,13.852989
1618539829.554767,67.000000,0.000000,4705.641113,4917.948730,4266.153809,4151.794922,4252.307617,450.000000,3.000000,73.000000,,,,0.000000,4.000000,0.000000,4.000000,4.000000,4.000000,66.666664,,,,,,,,,,,,,,,,,,,
1618539829.562584,68.000000,0.000000,4653.846191,4868.205078,4249.230957,4153.333496,4204.615234,0.000000,3.000000,73.000000,,,,0.000000,4.000000,0.000000,4.000000,4.000000,4.000000,66.666664,,,,,,,,34.000000,0.000000,0.669795,0.224609,0.582275,-0.402344,0.990250,0.145022,-0.217288,-5.066160,1.387977,13.903258
1618539829.570401,69.000000,0.000000,4589.230957,4887.179688,4227.692383,4132.307617,4148.717773,450.000000,3.000000,73.000000,,,,0.000000,4.000000,0.000000,4.000000,4.000000,4.000000,66.666664,,,,,,,,,,,,,,,,,,,
1618539829.578318,70.000000,0.000000,4528.205078,4901.538574,4210.769043,4112.820313,4076.923096,16175.000000,3.000000,73.000000,,,,0.000000,4.000000,0.000000,4.000000,4.000000,4.000000,66.666664,,,,,,,,35.000000,0.000000,0.669942,0.224609,0.582275,-0.402100,0.985367,0.153323,-0.218265,-3.482867,3.821240,13.888686
1618539829.586135,71.000000,0.000000,4473.333496,4846.153809,4190.256348,4119.487305,4015.384521,450.000000,3.000000,73.000000,,,,0.000000,4.000000,0.000000,4.000000,4.000000,4.000000,66.666664,,,,,,,,,,,,,,,,,,,
1618539829.593952,72.000000,0.000000,4413.846191,4821.025879,4177.948730,4132.307617,3981.538574,450.000000,3.000000,73.000000,,,,0.000000,4.000000,0.000000,4.000000,4.000000,4.000000,66.666664,,,,,,,,36.000000,0.000000,0.669942,0.224609,0.582275,-0.402100,0.969253,0.161624,-0.208011,-2.057904,5.951361,13.755940
1618539829.601769,73.000000,0.000000,4356.410156,4867.692383,4184.615234,4125.128418,3950.769287,16087.000000,3.000000,73.000000,,,,0.000000,4.000000,0.000000,4.000000,4.000000,4.000000,66.666664,,,,,,,,,,,,,,,,,,,
1618539829.609587,74.000000,0.000000,4318.974121,4903.589844,4195.897461,4114.358887,3916.923096,450.000000,3.000000,73.000000,,,,0.000000,4.000000,0.000000,4.000000,4.000000,4.000000,66.666664,,,,,,,,37.000000,0.000000,0.669942,0.224609,0.582275,-0.402100,0.968277,0.149905,-0.219730,-2.689528,7.868471,13.756100
1618539829.617404,75.000000,0.000000,4287.692383,4878.974121,4202.051270,4119.487305,3886.666748,16229.000000,3.000000,73.000000,,,,0.000000,4.000000,0.000000,4.000000,4.000000,4.000000,66.666664,,,,,,,,,,,,,,,,,,,
1618539829.625221,76.000000,0.000000,4245.641113,4790.769043,4202.563965,4126.153809,3851.794922,450.000000,3.000000,73.000000,,,,0.000000,4.000000,0.000000,4.000000,4.000000,4.000000,66.666664,,,,,,,,38.000000,0.000000,0.669942,0.224609,0.582275,-0.402100,0.960464,0.153811,-0.214847,-5.112267,9.593869,13.756243
1618539829.633038,77.000000,0.000000,4212.307617,4794.871582,4197.436035,4126.666504,3824.615479,450.000000,3.000000,73.000000,,,,0.000000,4.000000,0.000000,4.000000,4.000000,4.000000,66.666664,,,,,,,,,,,,,,,,,,,
1618539829.640855,78.000000,0.000000,4194.871582,4922.051270,4192.307617,4134.358887,3812.820557,450.000000,3.000000,73.000000,,,,0.000000,4.000000,0.000000,4.000000,4.000000,4.000000,66.666664,,,,,,,,39.000000,0.000000,0.669942,0.224609,0.582275,-0.402100,0.974624,0.164553,-0.221195,-3.524364,11.206543,13.636742
1618539829.648772,79.000000,0.000000,4170.256348,4934.871582,4185.128418,4140.000000,3785.128174,16229.000000,3.000000,73.000000,,,,0.000000,4.000000,0.000000,4.000000,4.000000,4.000000,66.666664,,,,,,,,,,,,,,,,,,,
1618539829.656589,80.000000,0.000000,4129.230957,4854.358887,4169.230957,4130.769043,3737.948730,450.000000,3.000000,73.000000,,,,0.000000,4.000000,0.000000,4.000000,4.000000,4.000000,66.666664,,,,,,,,40.000000,0.000000,0.669942,0.224609,0.582275,-0.402100,0.982925,0.164065,-0.223636,-5.863619,12.478503,13.708636
1618539829.664406,81.000000,0.000000,4082.051270,4827.179688,4154.871582,4123.077148,3693.846191,450.000000,3.000000,73.000000,,,,0.000000,4.000000,0.000000,4.000000,4.000000,4.000000,66.666664,,,,,,,,,,,,,,,,,,,
1618539829.672223,82.000000,0.000000,4036.923096,4813.333496,4156.922852,4126.666504,3647.692383,450.000000,3.000000,73.000000,,,,0.000000,4.000000,0.000000,4.000000,4.000000,4.000000,66.666664,,,,,,,,41.000000,0.000000,0.669942,0.224609,0.582275,-0.402100,0.973648,0.162112,-0.222660,-4.080950,9.974530,13.773341
1618539829.680040,83.000000,0.000000,4007.179443,4820.000000,4173.333496,4130.256348,3604.102539,16229.000000,3.000000,73.000000,,,,0.000000,4.000000,0.000000,4.000000,4.000000,4.000000,66.666664,,,,,,,,,,,,,,,,,,,
1618539829.687857,84.000000,0.000000,3992.820557,4869.743652,4187.179688,4128.717773,3585.641113,450.000000,3.000000,73.000000,,,,0.000000,4.000000,0.000000,4.000000,4.000000,4.000000,66.666664,,,,,,,,42.000000,0.000000,0.669860,0.224854,0.582275,-0.402100,0.966812,0.144045,-0.218265,-2.655993,7.780770,13.771761
1618539829.695674,85.000000,0.000000,3979.487061,4868.205078,4182.563965,4129.230957,3579.487061,450.000000,3.000000,73.000000,,,,0.000000,4.000000,0.000000,4.000000,4.000000,4.000000,66.666664,,,,,,,,,,,,,,,,,,,
1618539829.703491,86.000000,0.000000,3975.897461,4844.102539,4168.205078,4131.794922,3572.820557,450.000000,3.000000,73.000000,,,,0.000000,4.000000,0.000000,4.000000,4.000000,4.000000,66.666664,,,,,,,,43.000000,0.000000,0.669794,0.224854,0.582520,-0.401855,0.959487,0.150881,-0.218265,-1.253902,5.806386,13.830153
1618539829.711308,87.000000,0.000000,3993.333252,4852.307617,4171.794922,4130.256348,3583.076904,16229.000000,3.000000,73.000000,,,,0.000000,4.000000,0.000000,4.000000,4.000000,4.000000,66.666664,,,,,,,,,,,,,,,,,,,
1618539829.719025,88.000000,0.000000,4009.230713,4874.871582,4195.384766,4134.358887,3594.358887,450.000000,3.000000,73.000000,,,,0.000000,4.000000,0.000000,4.000000,4.000000,4.000000,66.666664,1.000000,16.666666,1.000000,0.000000,3.000000,3.000000,1.000000,44.000000,0.000000,0.669794,0.224854,0.582520,-0.401855,0.976577,0.158694,-0.215335,0.187426,3.790178,13.882707
1618539829.726842,89.000000,0.000000,4005.128174,4912.307617,4206.666504,4145.128418,3589.743652,450.000000,3.000000,73.000000,,,,0.000000,4.000000,0.000000,4.000000,4.000000,4.000000,66.666664,,,,,,,,,,,,,,,,,,,
1618539829.734659,90.000000,0.000000,3988.718018,4908.717773,4203.589844,4147.179688,3581.538574,450.000000,3.000000,73.000000,,,,0.000000,4.000000,0.000000,4.000000,4.000000,4.000000,66.666664,,,,,,,,45.000000,0.000000,0.669860,0.224854,0.582275,-0.402100,0.966812,0.144045,-0.218265,-2.642639,5.983221,13.930005
1618539829.742476,91.000000,0.000000,3968.718018,4884.102539,4202.051270,4137.948730,3568.718018,16229.000000,3.000000,73.000000,,,,0.000000,4.000000,0.000000,4.000000,4.000000,4.000000,66.666664,,,,,,,,,,,,,,,,,,,
1618539829.750293,92.000000,0.000000,3947.692383,4859.487305,4197.948730,4126.666504,3547.692383,450.000000,3.000000,73.000000,,,,0.000000,4.000000,0.000000,4.000000,4.000000,4.000000,66.666664,,,,,,,,46.000000,0.000000,0.669794,0.224854,0.582520,-0.401855,0.976577,0.158694,-0.215335,-1.062437,3.949330,13.972573
1618539829.758110,93.000000,0.000000,3931.281982,4842.051270,4189.743652,4117.436035,3535.897461,450.000000,3.000000,73.000000,,,,0.000000,4.000000,0.000000,4.000000,4.000000,4.000000,66.666664,,,,,,,,,,,,,,,,,,,
1618539829.765927,94.000000,0.000000,3931.794922,4841.025879,4184.102539,4111.794922,3542.051270,450.000000,3.000000,73.000000,,,,0.000000,4.000000,0.000000,4.000000,4.000000,4.000000,66.666664,,,,,,,,47.000000,0.000000,0.669794,0.224854,0.582520,-0.401855,0.972183,0.153811,-0.210452,-3.707700,6.126458,13.831438
1618539829.773744,95.000000,0.000000,3941.538574,4852.820313,4176.922852,4110.769043,3551.794922,16229.000000,3.000000,73.000000,,,,0.000000,4.000000,0.000000,4.000000,4.000000,4.000000,66.666664,,,,,,,,,,,,,,,,,,,
1618539829.781561,96.000000,0.000000,3952.820557,4878.461426,4177.436035,4112.307617,3566.666748,450.000000,3.000000,73.000000,,,,0.000000,4.000000,0.000000,4.000000,4.000000,4.000000,66.666664,,,,,,,,48.000000,0.000000,0.669582,0.224854,0.582764,-0.401855,0.988296,0.163088,-0.202152,-2.140623,4.197874,13.764233
1618539829.789277,97.000000,0.000000,3970.769287,4917.436035,4190.256348,4118.974121,3587.692383,450.000000,3.000000,73.000000,,,,0.000000,4.000000,0.000000,4.000000,4.000000,4.000000,66.666664,,,,,,,,,,,,,,,,,,,
1618539829.797093,98.000000,0.000000,3976.923096,4929.230957,4192.307617,4134.358887,3605.128174,450.000000,3.000000,73.000000,,,,0.000000,4.000000,0.000000,4.000000,4.000000,4.000000,66.666664,,,,,,,,49.000000,0.000000,0.669582,0.224854,0.582764,-0.401855,0.979019,0.155764,-0.221195,-0.610622,2.342518,13.823379
1618539829.804810,99.000000,0.000000,3965.641113,4850.256348,4192.820313,4144.102539,3612.820557,16229.000000,3.000000,73.000000,,,,0.000000,4.000000,0.000000,4.000000,4.000000,4.000000,66.666664,,,,,,,,,,,,,,,,,,,
1618539829.812627,100.000000,0.000000,3956.410156,4811.794922,4210.769043,4138.974121,3608.205078,450.000000,3.000000,73.000000,,,,0.000000,4.000000,0.000000,4.000000,4.000000,4.000000,66.666664,,,,,,,,50.000000,0.000000,0.669664,0.224609,0.582764,-0.401855,0.969741,0.155764,-0.221195,3.218808,0.852143,13.697163
1618539829.820444,101.000000,0.000000,3949.230713,4863.589844,4222.563965,4134.871582,3600.000000,450.000000,3.000000,73.000000,,,,0.000000,4.000000,0.000000,4.000000,4.000000,4.000000,66.666664,,,,,,,,,,,,,,,,,,,
1618539829.828261,102.000000,0.000000,3934.871826,4895.897461,4215.384766,4140.512695,3600.000000,450.000000,3.000000,73.000000,,,,0.000000,4.000000,0.000000,4.000000,4.000000,4.000000,66.666664,,,,,,,,51.000000,0.000000,0.669451,0.224609,0.583008,-0.401855,0.961440,0.151369,-0.215335,0.205236,3.279174,13.643385
1618539829.836078,103.000000,0.000000,3921.538574,4879.487305,4210.256348,4136.410156,3601.025635,16229.000000,3.000000,73.000000,,,,0.000000,4.000000,0.000000,4.000000,4.000000,4.000000,66.666664,,,,,,,,,,,,,,,,,,,
1618539829.843895,104.000000,0.000000,3910.769287,4818.974121,4202.563965,4115.384766,3588.205078,450.000000,3.000000,73.000000,,,,0.000000,4.000000,0.000000,4.000000,4.000000,4.000000,66.666664,,,,,,,,52.000000,0.000000,0.669598,0.224609,0.583008,-0.401611,0.975113,0.159670,-0.208011,1.321204,1.635319,13.654799
1618539829.851712,105.000000,0.000000,3898.461426,4789.230957,4185.128418,4107.179688,3573.846191,450.000000,3.000000,73.000000,,,,0.000000,4.000000,0.000000,4.000000,4.000000,4.000000,66.666664,,,,,,,,,,,,,,,,,,,
1618539829.859529,106.000000,0.000000,3893.846191,4848.717773,4176.410156,4118.974121,3575.897461,450.000000,3.000000,73.000000,,,,0.000000,4.000000,0.000000,4.000000,4.000000,4.000000,66.666664,,,,,,,,53.000000,0.000000,0.669598,0.224609,0.583008,-0.401611,0.967788,0.144045,-0.207523,2.265760,0.335295,13.545443
1618539829.867446,107.000000,0.000000,3892.307617,4900.512695,4167.179688,4119.487305,3578.461426,16229.000000,3.000000,73.000000,,,,0.000000,4.000000,0.000000,4.000000,4.000000,4.000000,66.666664,,,,,,,,,,,,,,,,,,,
1618539829.875264,108.000000,0.000000,3883.589844,4876.410156,4151.794922,4114.871582,3571.794922,450.000000,3.000000,73.000000,,,,0.000000,4.000000,0.000000,4.000000,4.000000,4.000000,66.666664,,,,,,,,54.000000,0.000000,0.669598,0.224609,0.583008,-0.401611,0.983413,0.159670,-0.219242,3.115861,2.814011,13.626467
1618539829.883081,109.000000,0.000000,3883.076904,4843.589844,4156.410156,4121.025879,3573.333252,450.000000,3.000000,73.000000,,,,0.000000,4.000000,0.000000,4.000000,4.000000,4.000000,66.666664,,,,,,,,,,,,,,,,,,,
1618539829.890898,110.000000,0.000000,3888.205078,4860.000000,4166.153809,4120.512695,3574.871826,450.000000,3.000000,73.000000,,,,0.000000,4.000000,0.000000,4.000000,4.000000,4.000000,66.666664,,,,,,,,55.000000,0.000000,0.669598,0.224609,0.583008,-0.401611,0.970718,0.147951,-0.214847,5.854858,1.276487,13.639574
1618539829.898716,111.000000,0.000000,3880.512939,4895.384766,4158.974121,4118.461426,3567.692383,16229.000000,3.000000,73.000000,,,,0.000000,4.000000,0.000000,4.000000,4.000000,4.000000,66.666664,,,,,,,,,,,,,,,,,,,
1618539829.906533,112.000000,0.000000,3882.051270,4888.717773,4158.461426,4130.769043,3576.923096,450.000000,3.000000,73.000000,,,,0.000000,4.000000,0.000000,4.000000,4.000000,4.000000,66.666664,,,,,,,,56.000000,0.000000,0.669744,0.224609,0.583008,-0.401367,0.961929,0.158206,-0.218753,2.637496,3.601269,13.591555
1618539829.914350,113.000000,0.000000,3901.025635,4878.461426,4174.871582,4139.487305,3595.897461,450.000000,3.000000,73.000000,,,,0.000000,4.000000,0.000000,4.000000,4.000000,4.000000,66.666664,,,,,,,,,,,,,,,,,,,
1618539829.922167,114.000000,0.000000,3902.051270,4878.461426,4178.461426,4130.256348,3592.820557,450.000000,3.000000,73.000000,,,,0.000000,4.000000,0.000000,4.000000,4.000000,4.000000,66.666664,,,,,,,,57.000000,0.000000,0.669744,0.224609,0.583008,-0.401367,0.968277,0.149416,-0.221683,3.510239,1.925204,13.428706
1618539829.929985,115.000000,0.000000,3885.641113,4830.256348,4169.743652,4115.384766,3576.410156,16229.000000,3.000000,73.000000,,,,0.000000,4.000000,0.000000,4.000000,4.000000,4.000000,66.666664,,,,,,,,,,,,,,,,,,,
1618539829.937902,116.000000,0.000000,3886.666748,4775.384766,4167.179688,4105.641113,3567.692383,450.000000,3.000000,73.000000,,,,0.000000,4.000000,0.000000,4.000000,4.000000,4.000000,66.666664,,,,,,,,58.000000,0.000000,0.669744,0.224609,0.583008,-0.401367,0.974624,0.150393,-0.208988,0.467523,4.244928,13.521404
1618539829.945719,117.000000,0.000000,3891.794922,4782.051270,4160.512695,4102.563965,3554.871826,450.000000,3.000000,73.000000,,,,0.000000,4.000000,0.000000,4.000000,4.000000,4.000000,66.666664,,,,,,,,,,,,,,,,,,,
1618539829.953536,118.000000,0.000000,3882.051270,4860.000000,4149.743652,4101.538574,3543.076904,450.000000,3.000000,73.000000,,,,0.000000,4.000000,0.000000,4.000000,4.000000,4.000000,66.666664,,,,,,,,59.000000,0.000000,0.669744,0.224609,0.583008,-0.401367,0.969741,0.159670,-0.213382,-0.237198,2.624128,13.425386
1618539829.961353,119.000000,0.000000,3887.692383,4905.641113,4151.282227,4103.589844,3551.281982,16229.000000,3.000000,73.000000,,,,0.000000,4.000000,0.000000,4.000000,4.000000,4.000000,66.666664,,,,,,,,,,,,,,,,,,,
1618539829.969170,120.000000,0.000000,3906.666748,4887.692383,4156.410156,4104.615234,3567.179443,450.000000,3.000000,73.000000,,,,0.000000,4.000000,0.000000,4.000000,4.000000,4.000000,66.666664,,,,,,,,60.000000,0.000000,0.669662,0.224854,0.583008,-0.401367,0.970230,0.153323,-0.218753,0.863198,1.105593,13.518416
1618539829.976987,121.000000,0.000000,3910.256348,4879.487305,4151.282227,4100.000000,3568.205078,450.000000,3.000000,73.000000,,,,0.000000,4.000000,0.000000,4.000000,4.000000,4.000000,66.666664,,,,,,,,,,,,,,,,,,,
1618539829.984804,122.000000,0.000000,3912.307617,4848.205078,4147.179688,4094.871826,3564.615479,450.000000,3.000000,73.000000,,,,0.000000,4.000000,0.000000,4.000000,4.000000,4.000000,66.666664,,,,,,,,61.000000,0.000000,0.669744,0.224609,0.583008,-0.401367,0.980972,0.164065,-0.218265,1.973186,-0.380720,13.721775
1618539829.992621,123.000000,0.000000,3933.333252,4828.205078,4147.692383,4101.025879,3576.923096,16229.000000,3.000000,73.000000,,,,0.000000,4.000000,0.000000,4.000000,4.000000,4.000000,66.666664,,,,,,,,,,,,,,,,,,,
1618539830.000438,124.000000,0.000000,3952.307617,4856.410156,4142.051270,4108.205078,3588.718018,450.000000,3.000000,73.000000,,,,0.000000,4.000000,0.000000,4.000000,4.000000,4.000000,66.666664,,,,,,,,62.000000,0.000000,0.669744,0.224609,0.583008,-0.401367,0.971695,0.149905,-0.222660,2.852544,-1.479140,13.605720
1618539830.008155,125.000000,0.000000,3945.128174,4824.615234,4132.820313,4096.922852,3568.718018,450.000000,3.000000,73.000000,,,,0.000000,4.000000,0.000000,4.000000,4.000000,4.000000,66.666664,,,,,,,,,,,,,,,,,,,
1618539830.015972,126.000000,0.000000,3925.128174,4838.461426,4127.179688,4086.666748,3527.179443,450.000000,3.000000,73.000000,,,,0.000000,4.000000,0.000000,4.000000,4.000000,4.000000,66.666664,,,,,,,,63.000000,0.000000,0.669744,0.224609,0.583008,-0.401367,0.979019,0.155764,-0.224125,3.643966,1.300650,13.620901
1618539830.023789,127.000000,0.000000,3906.666748,4905.128418,4129.230957,4089.743652,3495.897461,238.000000,3.000000,73.000000,,,,0.000000,4.000000,0.000000,4.000000,4.000000,4.000000,66.666664,,,,,,,,,,,,,,,,,,,
1618539830.031606,0.000000,0.000000,3898.974365,4836.410156,4136.922852,4092.307617,3485.641113,450.000000,3.000000,73.000000,,,,0.000000,4.000000,0.000000,4.000000,4.000000,4.000000,66.666664,,,,,,,,0.000000,0.000000,0.669744,0.224609,0.583008,-0.401367,0.969253,0.148440,-0.217777,4.356246,-0.205168,13.574749
1618539830.039423,1.000000,0.000000,3898.974365,4781.025879,4141.538574,4095.897461,3487.179443,450.000000,3.000000,73.000000,,,,0.000000,4.000000,0.000000,4.000000,4.000000,4.000000,66.666664,,,,,,,,,,,,,,,,,,,
1618539830.047240,2.000000,0.000000,3901.025635,4889.230957,4139.487305,4102.563965,3486.153809,16239.000000,3.000000,73.000000,,,,0.000000,4.000000,0.000000,4.000000,4.000000,4.000000,66.666664,,,,,,,,1.000000,0.000000,0.669972,0.224365,0.583008,-0.401123,0.980484,0.154299,-0.220706,3.143022,-1.620220,13.533213
1618539830.055057,3.000000,0.000000,3904.615479,4936.410156,4138.974121,4102.051270,3482.564209,450.000000,3.000000,73.000000,,,,0.000000,4.000000,0.000000,4.000000,4.000000,4.000000,66.666664,,,,,,,,,,,,,,,,,,,
1618539830.062874,4.000000,0.000000,3914.358887,4837.436035,4139.487305,4094.871826,3485.641113,0.000000,3.000000,73.000000,,,,0.000000,4.000000,0.000000,4.000000,4.000000,4.000000,66.666664,,,,,,,,2.000000,0.000000,0.669826,0.224365,0.583008,-0.401367,0.966323,0.145510,-0.226078,2.230566,-2.714321,13.735090
1618539830.070691,5.000000,0.000000,3929.230713,4803.589844,4138.461426,4097.436035,3496.410156,450.000000,3.000000,73.000000,,,,0.000000,4.000000,0.000000,4.000000,4.000000,4.000000,66.666664,,,,,,,,,,,,,,,,,,,
1618539830.078608,6.000000,0.000000,3941.025635,4888.717773,4143.589844,4106.153809,3514.871826,16204.000000,3.000000,73.000000,,,,0.000000,4.000000,0.000000,4.000000,4.000000,4.000000,66.666664,,,,,,,,3.000000,0.000000,0.670038,0.224365,0.582764,-0.401367,0.970230,0.151369,-0.211917,1.170094,-3.818642,13.856966
1618539830.086425,7.000000,0.000000,3947.179443,4916.410156,4147.179688,4108.205078,3538.974365,450.000000,3.000000,73.000000,,,,0.000000,4.000000,0.000000,4.000000,4.000000,4.000000,66.666664,,,,,,,,,,,,,,,,,,,
1618539830.094242,8.000000,0.000000,3948.205078,4860.512695,4142.051270,4111.282227,3548.205078,450.000000,3.000000,73.000000,,,,0.000000,4.000000,0.000000,4.000000,4.000000,4.000000,66.666664,,,,,,,,4.000000,0.000000,0.670120,0.224121,0.582764,-0.401367,0.974136,0.153811,-0.231937,4.043853,-4.633085,13.727392
1618539830.102059,9.000000,0.000000,3945.641113,4877.948730,4136.410156,4112.307617,3533.846191,16091.000000,3.000000,73.000000,,,,0.000000,4.000000,0.000000,4.000000,4.000000,4.000000,66.666664,,,,,,,,,,,,,,,,,,,
1618539830.109876,10.000000,0.000000,3942.051270,4932.307617,4140.512695,4099.487305,3516.923096,450.000000,3.000000,73.000000,,,,0.000000,4.000000,0.000000,4.000000,4.000000,4.000000,66.666664,,,,,,,,5.000000,0.000000,0.669907,0.224121,0.583008,-0.401367,0.973159,0.165530,-0.228519,0.828146,-1.657531,13.730406
1618539830.117693,11.000000,0.000000,3946.153809,4882.563965,4145.641113,4091.794922,3510.256348,16226.000000,3.000000,73.000000,,,,0.000000,4.000000,0.000000,4.000000,4.000000,4.000000,66.666664,,,,,,,,,,,,,,,,,,,
1618539830.125510,12.000000,0.000000,3958.974365,4829.230957,4142.051270,4099.487305,3519.487061,450.000000,3.000000,73.000000,,,,0.000000,4.000000,0.000000,4.000000,4.000000,4.000000,66.666664,,,,,,,,6.000000,0.000000,0.669907,0.224121,0.583008,-0.401367,0.990738,0.149905,-0.229496,3.795915,-2.927347,13.673304
1618539830.133327,13.000000,0.000000,3971.281982,4855.384766,4138.461426,4100.000000,3545.641113,450.000000,3.000000,73.000000,,,,0.000000,4.000000,0.000000,4.000000,4.000000,4.000000,66.666664,,,,,,,,,,,,,,,,,,,
1618539830.141244,14.000000,0.000000,3988.718018,4881.025879,4147.179688,4097.436035,3582.051270,450.000000,3.000000,73.000000,,,,0.000000,4.000000,0.000000,4.000000,4.000000,4.000000,66.666664,,,,,,,,7.000000,0.000000,0.669549,0.224121,0.583252,-0.401611,0.963882,0.154299,-0.218753,6.407092,-0.062552,13.681726
1618539830.149061,15.000000,0.000000,4011.794922,4872.307617,4157.948730,4107.179688,3620.512939,16226.000000,3.000000,73.000000,,,,0.000000,4.000000,0.000000,4.000000,4.000000,4.000000,66.666664,,,,,,,,,,,,,,,,,,,
1618539830.156878,16.000000,0.000000,4029.230713,4873.333496,4157.436035,4120.512695,3658.974365,0.000000,3.000000,73.000000,,,,0.000000,4.000000,0.000000,4.000000,4.000000,4.000000,66.666664,,,,,,,,8.000000,0.000000,0.669549,0.224121,0.583252,-0.401611,0.971206,0.154299,-0.223636,3.254137,2.515764,13.689307
1618539830.164695,17.000000,0.000000,4041.538574,4866.666504,4155.897461,4119.487305,3695.897461,0.000000,3.000000,73.000000,,,,0.000000,4.000000,0.000000,4.000000,4.000000,4.000000,66.666664,,,,,,,,,,,,,,,,,,,
1618539830.172512,18.000000,0.000000,4064.102539,4866.666504,4152.820313,4112.307617,3732.820557,0.000000,3.000000,73.000000,,,,0.000000,4.000000,0.000000,4.000000,4.000000,4.000000,66.666664,,,,,,,,9.000000,0.000000,0.669467,0.224365,0.583252,-0.401611,0.975601,0.154788,-0.203616,2.031493,4.776433,13.755945
1618539830.180329,19.000000,0.000000,4084.102539,4861.538574,4139.487305,4107.692383,3767.692383,0.000000,3.000000,73.000000,,,,0.000000,4.000000,0.000000,4.000000,4.000000,4.000000,66.666664,,,,,,,,,,,,,,,,,,,
1618539830.188146,20.000000,0.000000,4083.589844,4844.102539,4128.205078,4098.974121,3792.820557,0.000000,3.000000,73.000000,,,,0.000000,4.000000,0.000000,4.000000,4.000000,4.000000,66.666664,,,,,,,,10.000000,0.000000,0.669613,0.224365,0.583252,-0.401367,0.970230,0.164553,-0.210452,1.050744,2.982852,13.756104
1618539830.195963,21.000000,0.000000,4082.564209,4922.051270,4132.820313,4089.230713,3814.358887,0.000000,3.000000,73.000000,,,,0.000000,4.000000,0.000000,4.000000,4.000000,4.000000,66.666664,,,,,,,,,,,,,,,,,,,
1618539830.203881,22.000000,0.000000,4112.820313,4955.384766,4140.000000,4086.666748,3855.897461,0.000000,3.000000,73.000000,,,,0.000000,4.000000,0.000000,4.000000,4.000000,4.000000,66.666664,,,,,,,,11.000000,0.000000,0.669678,0.224609,0.583252,-0.401123,0.966323,0.149416,-0.218753,0.168070,1.248998,13.935694
1618539830.211698,23.000000,0.000000,4152.307617,4854.358887,4137.436035,4086.153809,3915.384521,0.000000,3.000000,73.000000,,,,0.000000,4.000000,0.000000,4.000000,4.000000,4.000000,66.666664,,,,,,,,,,,,,,,,,,,
1618539830.219515,24.000000,0.000000,4184.615234,4845.641113,4134.358887,4088.718018,3969.230713,0.000000,3.000000,73.000000,,,,0.000000,4.000000,0.000000,4.000000,4.000000,4.000000,66.666664,1.000000,16.666666,1.000000,0.000000,3.000000,3.000000,1.000000,12.000000,0.000000,0.669467,0.224365,0.583252,-0.401611,0.975601,0.154788,-0.203616,3.261662,-0.132025,13.858062
1618539830.227332,25.000000,0.000000,4242.051270,4949.230957,4142.563965,4093.846191,4024.102539,0.000000,3.000000,73.000000,,,,0.000000,4.000000,0.000000,4.000000,4.000000,4.000000,66.666664,,,,,,,,,,,,,,,,,,,
1618539830.235150,26.000000,0.000000,4310.256348,4983.589844,4145.641113,4098.974121,4103.589844,0.000000,3.000000,73.000000,,,,0.000000,4.000000,0.000000,4.000000,4.000000,4.000000,66.666664,,,,,,,,13.000000,0.000000,0.669678,0.224609,0.583252,-0.401123,0.966323,0.149416,-0.218753,2.157896,-1.554391,14.027455
1618539830.242967,27.000000,0.000000,4364.615234,4925.128418,4143.589844,4110.769043,4192.820313,0.000000,3.000000,73.000000,,,,0.000000,4.000000,0.000000,4.000000,4.000000,4.000000,66.666664,,,,,,,,,,,,,,,,,,,
1618539830.250784,28.000000,0.000000,4424.615234,4861.025879,4152.820313,4130.769043,4251.282227,0.000000,3.000000,73.000000,,,,0.000000,4.000000,0.000000,4.000000,4.000000,4.000000,66.666664,,,,,,,,14.000000,0.000000,0.669806,0.225098,0.583252,-0.400635,0.970718,0.163577,-0.221195,5.052505,-2.655074,13.940648
1618539830.258601,29.000000,0.000000,4460.000000,4872.820313,4154.871582,4137.436035,4276.922852,0.000000,3.000000,73.000000,,,,0.000000,4.000000,0.000000,4.000000,4.000000,4.000000,66.666664,,,,,,,,,,,,,,,,,,,
1618539830.266419,30.000000,0.000000,4457.436035,4915.384766,4145.641113,4115.897461,4326.153809,0.000000,3.000000,73.000000,,,,0.000000,4.000000,0.000000,4.000000,4.000000,4.000000,66.666664,,,,,,,,15.000000,0.000000,0.669915,0.226074,0.583252,-0.399902,0.967788,0.151369,-0.221195,5.683747,-3.645690,14.041967
1618539830.274335,31.000000,0.000000,4492.307617,4829.743652,4152.307617,4094.358887,4398.461426,0.000000,3.000000,73.000000,,,,0.000000,4.000000,0.000000,4.000000,4.000000,4.000000,66.666664,,,,,,,,,,,,,,,,,,,
1618539830.282151,32.000000,0.000000,4535.897461,4706.666504,4158.461426,4099.487305,4416.922852,0.000000,3.000000,73.000000,,,,0.000000,4.000000,0.000000,4.000000,4.000000,4.000000,66.666664,,,,,,,,16.000000,0.000000,0.670379,0.227051,0.583008,-0.398926,0.981949,0.174807,-0.229496,6.431310,-0.768875,13.893893
1618539830.290067,33.000000,0.000000,4543.589844,4725.128418,4143.589844,4107.692383,4400.000000,0.000000,3.000000,73.000000,,,,0.000000,4.000000,0.000000,4.000000,4.000000,4.000000,66.666664,,,,,,,,,,,,,,,,,,,
1618539830.297883,34.000000,0.000000,4633.333496,4779.487305,4132.307617,4102.051270,4375.897461,0.000000,3.000000,73.000000,,,,0.000000,4.000000,0.000000,4.000000,4.000000,4.000000,66.666664,,,,,,,,17.000000,0.000000,0.670649,0.227539,0.583008,-0.398193,0.988296,0.151369,-0.214847,3.216118,1.880073,13.880258
1618539830.305699,35.000000,0.000000,4815.897461,4747.692383,4133.846191,4090.256348,4226.666504,0.000000,3.000000,73.000000,,,,0.000000,4.000000,0.000000,4.000000,4.000000,4.000000,66.666664,,,,,,,,,,,,,,,,,,,
1618539830.313515,36.000000,0.000000,4958.974121,4637.948730,4131.794922,4069.743652,3954.358887,0.000000,3.000000,73.000000,,,,0.000000,4.000000,0.000000,4.000000,4.000000,4.000000,66.666664,,,,,,,,18.000000,0.000000,0.670711,0.227783,0.583008,-0.397949,0.974136,0.117678,-0.218265,4.150629,0.435943,13.808169
1618539830.321231,37.000000,0.000000,5088.205078,4578.461426,4116.410156,4068.718018,3786.666748,0.000000,3.000000,73.000000,,,,0.000000,4.000000,0.000000,4.000000,4.000000,4.000000,66.666664,,,,,,,,,,,,,,,,,,,
1618539830.329147,38.000000,0.000000,5281.538574,4755.897461,4084.615479,4092.307617,3796.410156,0.000000,3.000000,73.000000,,,,0.000000,4.000000,0.000000,4.000000,4.000000,4.000000,66.666664,,,,,,,,19.000000,0.000000,0.670499,0.227783,0.583252,-0.397949,0.969741,0.115724,-0.215335,4.812243,3.024225,13.743291
1618539830.336963,39.000000,0.000000,5450.256348,5014.358887,4053.846191,4094.358887,3805.128174,0.000000,3.000000,73.000000,,,,0.000000,4.000000,0.000000,4.000000,4.000000,4.000000,66.666664,,,,,,,,,,,,,,,,,,,
1618539830.344779,40.000000,0.000000,5540.000000,4988.717773,4034.358887,4074.358887,3806.666748,0.000000,3.000000,73.000000,,,,0.000000,4.000000,0.000000,4.000000,4.000000,4.000000,66.666664,,,,,,,,20.000000,0.000000,0.670566,0.227783,0.583008,-0.398193,0.972183,0.147951,-0.208988,3.553419,1.525495,13.864346
1618539830.352495,41.000000,0.000000,5586.666504,4848.205078,4027.179443,4060.512939,3910.769287,0.000000,3.000000,73.000000,,,,0.000000,4.000000,0.000000,4.000000,4.000000,4.000000,66.666664,,,,,,,,,,,,,,,,,,,
1618539830.360411,42.000000,0.000000,5625.128418,4924.615234,4020.000000,4060.512939,4032.820557,0.000000,3.000000,73.000000,,,,0.000000,4.000000,0.000000,4.000000,4.000000,4.000000,66.666664,,,,,,,,21.000000,0.000000,0.670587,0.227295,0.583008,-0.398438,0.970718,0.141115,-0.214847,4.274754,4.004822,13.853664
1618539830.368228,43.000000,0.000000,5675.897461,5019.487305,4000.000000,4069.743652,4065.641113,0.000000,3.000000,73.000000,,,,0.000000,4.000000,0.000000,4.000000,4.000000,4.000000,66.666664,,,,,,,,,,,,,,,,,,,
1618539830.376044,44.000000,0.000000,5705.128418,4970.769043,3990.256348,4071.794922,4071.794922,0.000000,3.000000,73.000000,,,,0.000000,4.000000,0.000000,4.000000,4.000000,4.000000,66.666664,,,,,,,,22.000000,0.000000,0.670399,0.226563,0.583008,-0.399170,0.979507,0.135744,-0.200198,6.957677,2.408032,13.903867
1618539830.383860,45.000000,0.000000,5684.615234,4889.230957,3995.897461,4068.205078,4114.358887,0.000000,3.000000,73.000000,,,,0.000000,4.000000,0.000000,4.000000,4.000000,4.000000,66.666664,,,,,,,,,,,,,,,,,,,
1618539830.391777,46.000000,0.000000,5634.358887,4855.384766,3993.846191,4091.794922,4115.384766,0.000000,3.000000,73.000000,,,,0.000000,4.000000,0.000000,4.000000,4.000000,4.000000,66.666664,,,,,,,,23.000000,0.000000,0.670146,0.225586,0.583008,-0.400146,0.982437,0.125978,-0.216800,3.510403,4.739290,13.829418
1618539830.399595,47.000000,0.000000,5545.128418,4867.179688,4002.564209,4124.102539,4070.256348,0.000000,3.000000,73.000000,,,,0.000000,4.000000,0.000000,4.000000,4.000000,4.000000,66.666664,,,,,,,,,,,,,,,,,,,
1618539830.407412,48.000000,0.000000,5366.153809,4896.922852,4037.435791,4117.436035,4019.487061,0.000000,3.000000,73.000000,,,,0.000000,4.000000,0.000000,4.000000,4.000000,4.000000,66.666664,,,,,,,,24.000000,0.000000,0.669465,0.224609,0.583496,-0.401123,0.973648,0.146487,-0.213870,4.355669,3.009238,13.762415
1618539830.415229,49.000000,0.000000,5126.666504,4904.102539,4064.102539,4102.051270,3925.128174,0.000000,3.000000,73.000000,,,,0.000000,4.000000,0.000000,4.000000,4.000000,4.000000,66.666664,,,,,,,,,,,,,,,,,,,
1618539830.423046,50.000000,0.000000,4911.282227,4853.846191,4082.051270,4108.205078,3853.846191,0.000000,3.000000,73.000000,,,,0.000000,4.000000,0.000000,4.000000,4.000000,4.000000,66.666664,,,,,,,,25.000000,0.000000,0.669482,0.224121,0.583496,-0.401367,0.951186,0.175784,-0.225589,4.996779,1.571822,13.702111
1618539830.430864,51.000000,0.000000,4723.589844,4803.589844,4095.897461,4121.538574,3785.128174,0.000000,3.000000,73.000000,,,,0.000000,4.000000,0.000000,4.000000,4.000000,4.000000,66.666664,,,,,,,,,,,,,,,,,,,
1618539830.438681,52.000000,0.000000,4550.769043,4812.307617,4089.230713,4132.307617,3618.461426,0.000000,3.000000,73.000000,,,,0.000000,4.000000,0.000000,4.000000,4.000000,4.000000,66.666664,,,,,,,,26.000000,0.000000,0.669564,0.223877,0.583496,-0.401367,0.979995,0.174807,-0.211917,5.633593,4.046516,13.767468
1618539830.446498,53.000000,0.000000,4419.487305,4863.589844,4075.897461,4123.589844,3567.179443,0.000000,3.000000,73.000000,,,,0.000000,4.000000,0.000000,4.000000,4.000000,4.000000,66.666664,,,,,,,,,,,,,,,,,,,
1618539830.454315,54.000000,0.000000,4323.077148,4915.384766,4067.179443,4109.743652,3823.076904,0.000000,3.000000,73.000000,,,,0.000000,4.000000,0.000000,4.000000,4.000000,4.000000,66.666664,,,,,,,,27.000000,0.000000,0.669564,0.223877,0.583496,-0.401367,0.991714,0.138674,-0.224125,6.206726,6.094295,13.766476
1618539830.462133,55.000000,0.000000,4241.538574,4948.205078,4064.615479,4113.333496,4138.974121,0.000000,3.000000,73.000000,,,,0.000000,4.000000,0.000000,4.000000,4.000000,4.000000,66.666664,,,,,,,,,,,,,,,,,,,
1618539830.469850,56.000000,0.000000,4191.282227,4933.333496,4067.179443,4113.846191,4304.615234,0.000000,3.000000,73.000000,,,,0.000000,4.000000,0.000000,4.000000,4.000000,4.000000,66.666664,,,,,,,,28.000000,0.000000,0.669497,0.223877,0.583740,-0.401123,0.986831,0.152834,-0.215824,6.842176,4.049296,13.765581
1618539830.477667,57.000000,0.000000,4156.922852,4900.512695,4065.128174,4107.179688,4390.769043,0.000000,3.000000,73.000000,,,,0.000000,4.000000,0.000000,4.000000,4.000000,4.000000,66.666664,,,,,,,,,,,,,,,,,,,
1618539830.485484,58.000000,0.000000,4103.589844,4914.358887,4061.538574,4109.230957,4426.666504,0.000000,3.000000,73.000000,,,,0.000000,4.000000,0.000000,4.000000,4.000000,4.000000,66.666664,,,,,,,,29.000000,0.000000,0.669497,0.223877,0.583740,-0.401123,0.970230,0.148928,-0.206546,9.029096,2.448059,13.764776
1618539830.493301,59.000000,0.000000,4054.871826,4966.153809,4062.564209,4115.897461,4422.563965,0.000000,3.000000,73.000000,,,,0.000000,4.000000,0.000000,4.000000,4.000000,4.000000,66.666664,,,,,,,,,,,,,,,,,,,
1618539830.501118,60.000000,0.000000,4025.128174,4962.563965,4064.102539,4123.077148,4416.410156,0.000000,3.000000,73.000000,,,,0.000000,4.000000,0.000000,4.000000,4.000000,4.000000,66.666664,,,,,,,,30.000000,0.000000,0.669579,0.223633,0.583740,-0.401123,0.977066,0.158206,-0.217777,9.262678,4.595868,13.704237
1618539830.508935,61.000000,0.000000,4000.000000,4909.230957,4066.153809,4126.153809,4390.256348,0.000000,3.000000,73.000000,,,,0.000000,4.000000,0.000000,4.000000,4.000000,4.000000,66.666664,,,,,,,,,,,,,,,,,,,
1618539830.516752,62.000000,0.000000,3979.487061,4952.307617,4071.794922,4122.563965,4357.948730,0.000000,3.000000,73.000000,,,,0.000000,4.000000,0.000000,4.000000,4.000000,4.000000,66.666664,,,,,,,,31.000000,0.000000,0.669725,0.223633,0.583740,-0.400879,0.959487,0.155764,-0.201175,9.472902,2.999789,13.649752
1618539830.524569,63.000000,0.000000,3966.666748,4959.487305,4071.794922,4125.128418,4342.563965,0.000000,3.000000,73.000000,,,,0.000000,4.000000,0.000000,4.000000,4.000000,4.000000,66.666664,,,,,,,,,,,,,,,,,,,
1618539830.532386,64.000000,0.000000,3967.692383,4857.436035,4070.256348,4128.717773,4350.256348,450.000000,3.000000,73.000000,,,,0.000000,4.000000,0.000000,4.000000,4.000000,4.000000,66.666664,,,,,,,,32.000000,0.000000,0.669725,0.223633,0.583740,-0.400879,0.974136,0.155276,-0.202152,5.833921,5.152240,13.660529
1618539830.540303,65.000000,0.000000,3979.487061,4855.897461,4079.487061,4124.102539,4382.051270,450.000000,3.000000,73.000000,,,,0.000000,4.000000,0.000000,4.000000,4.000000,4.000000,66.666664,,,,,,,,,,,,,,,,,,,
1618539830.548120,66.000000,0.000000,3984.102539,4976.410156,4087.179443,4127.692383,4405.128418,16241.000000,3.000000,73.000000,,,,0.000000,4.000000,0.000000,4.000000,4.000000,4.000000,66.666664,,,,,,,,33.000000,0.000000,0.669807,0.223389,0.583740,-0.400879,0.961929,0.145998,-0.208988,6.387021,3.380894,13.550599
1618539830.555937,67.000000,0.000000,3994.871826,5050.769043,4088.205078,4147.179688,4421.025879,450.000000,3.000000,73.000000,,,,0.000000,4.000000,0.000000,4.000000,4.000000,4.000000,66.666664,,,,,,,,,,,,,,,,,,,
1618539830.563754,68.000000,0.000000,4015.897461,4964.615234,4100.512695,4156.922852,4447.692383,0.000000,3.000000,73.000000,,,,0.000000,4.000000,0.000000,4.000000,4.000000,4.000000,66.666664,,,,,,,,34.000000,0.000000,0.670034,0.223145,0.583740,-0.400635,0.980484,0.151369,-0.211917,6.824995,1.846497,13.571293
1618539830.571571,69.000000,0.000000,4015.384521,4835.384766,4123.077148,4150.769043,4465.641113,450.000000,3.000000,73.000000,,,,0.000000,4.000000,0.000000,4.000000,4.000000,4.000000,66.666664,,,,,,,,,,,,,,,,,,,
1618539830.579388,70.000000,0.000000,3997.435791,4842.051270,4131.794922,4145.128418,4471.794922,16214.000000,3.000000,73.000000,,,,0.000000,4.000000,0.000000,4.000000,4.000000,4.000000,66.666664,,,,,,,,35.000000,0.000000,0.670034,0.223145,0.583740,-0.400635,0.977554,0.151369,-0.216800,7.219172,4.054462,13.530102
1618539830.587205,71.000000,0.000000,3991.281982,4943.589844,4119.487305,4134.358887,4477.948730,450.000000,3.000000,73.000000,,,,0.000000,4.000000,0.000000,4.000000,4.000000,4.000000,66.666664,,,,,,,,,,,,,,,,,,,
1618539830.595022,72.000000,0.000000,3992.820557,4966.153809,4108.205078,4132.307617,4480.000000,450.000000,3.000000,73.000000,,,,0.000000,4.000000,0.000000,4.000000,4.000000,4.000000,66.666664,,,,,,,,36.000000,0.000000,0.670115,0.222900,0.583740,-0.400635,0.978042,0.151858,-0.216800,7.514116,2.273262,13.552845
1618539830.602839,73.000000,0.000000,3998.461426,4878.461426,4109.743652,4146.666504,4490.256348,16110.000000,3.000000,73.000000,,,,0.000000,4.000000,0.000000,4.000000,4.000000,4.000000,66.666664,,,,,,,,,,,,,,,,,,,
1618539830.610756,74.000000,0.000000,4015.897461,4849.230957,4117.436035,4152.820313,4517.436035,450.000000,3.000000,73.000000,,,,0.000000,4.000000,0.000000,4.000000,4.000000,4.000000,66.666664,,,,,,,,37.000000,0.000000,0.669969,0.222900,0.583740,-0.400879,0.965835,0.151369,-0.208499,4.130828,4.498366,13.513498
1618539830.618574,75.000000,0.000000,4034.871826,4883.589844,4118.461426,4146.666504,4538.461426,16198.000000,3.000000,73.000000,,,,0.000000,4.000000,0.000000,4.000000,4.000000,4.000000,66.666664,,,,,,,,,,,,,,,,,,,
1618539830.626391,76.000000,0.000000,4045.641113,4878.461426,4117.436035,4146.666504,4543.589844,450.000000,3.000000,73.000000,,,,0.000000,4.000000,0.000000,4.000000,4.000000,4.000000,66.666664,,,,,,,,38.000000,0.000000,0.669969,0.222900,0.583740,-0.400879,0.979019,0.157717,-0.220706,6.828145,2.792407,13.478086
1618539830.634208,77.000000,0.000000,4058.974365,4874.871582,4129.230957,4155.897461,4556.922852,450.000000,3.000000,73.000000,,,,0.000000,4.000000,0.000000,4.000000,4.000000,4.000000,66.666664,,,,,,,,,,,,,,,,,,,
1618539830.642026,78.000000,0.000000,4083.076904,4908.205078,4142.051270,4164.615234,4584.615234,450.000000,3.000000,73.000000,,,,0.000000,4.000000,0.000000,4.000000,4.000000,4.000000,66.666664,,,,,,,,39.000000,0.000000,0.670263,0.222656,0.583496,-0.400879,0.969253,0.156252,-0.217288,7.162191,1.137413,13.506031
1618539830.649843,79.000000,0.000000,4106.153809,4908.205078,4141.538574,4168.717773,4594.871582,16198.000000,3.000000,73.000000,,,,0.000000,4.000000,0.000000,4.000000,4.000000,4.000000,66.666664,,,,,,,,,,,,,,,,,,,
1618539830.657660,80.000000,0.000000,4106.153809,4874.358887,4140.000000,4163.077148,4586.153809,450.000000,3.000000,73.000000,,,,0.000000,4.000000,0.000000,4.000000,4.000000,4.000000,66.666664,,,,,,,,40.000000,0.000000,0.670263,0.222656,0.583496,-0.400879,0.973648,0.154788,-0.214847,9.436741,-0.172636,13.411551
1618539830.665477,81.000000,0.000000,4091.794922,4871.282227,4144.615234,4160.000000,4583.077148,450.000000,3.000000,73.000000,,,,0.000000,4.000000,0.000000,4.000000,4.000000,4.000000,66.666664,,,,,,,,,,,,,,,,,,,
1618539830.673295,82.000000,0.000000,4088.205078,4912.307617,4148.205078,4172.307617,4589.743652,450.000000,3.000000,73.000000,,,,0.000000,4.000000,0.000000,4.000000,4.000000,4.000000,66.666664,,,,,,,,41.000000,0.000000,0.670182,0.222900,0.583496,-0.400879,0.975113,0.161135,-0.221195,9.689374,-1.411495,13.505964
1618539830.681112,83.000000,0.000000,4091.794922,4950.769043,4141.538574,4177.436035,4593.846191,16198.000000,3.000000,73.000000,,,,0.000000,4.000000,0.000000,4.000000,4.000000,4.000000,66.666664,,,,,,,,,,,,,,,,,,,
1618539830.688829,84.000000,0.000000,4105.128418,4953.846191,4133.333496,4171.282227,4603.589844,450.000000,3.000000,73.000000,,,,0.000000,4.000000,0.000000,4.000000,4.000000,4.000000,66.666664,,,,,,,,42.000000,0.000000,0.670247,0.223145,0.583496,-0.400635,0.973159,0.150393,-0.203616,9.856929,-2.466653,13.471306
1618539830.696646,85.000000,0.000000,4135.384766,4934.358887,4137.948730,4183.589844,4617.948730,450.000000,3.000000,73.000000,,,,0.000000,4.000000,0.000000,4.000000,4.000000,4.000000,66.666664,,,,,,,,,,,,,,,,,,,
1618539830.704463,86.000000,0.000000,4159.487305,4864.102539,4152.307617,4196.410156,4628.205078,450.000000,3.000000,73.000000,,,,0.000000,4.000000,0.000000,4.000000,4.000000,4.000000,66.666664,,,,,,,,43.000000,0.000000,0.670263,0.222656,0.583496,-0.400879,0.973648,0.154788,-0.214847,11.862004,-3.416295,13.380299
1618539830.712280,87.000000,0.000000,4161.538574,4833.846191,4150.769043,4182.051270,4636.410156,16198.000000,3.000000,73.000000,,,,0.000000,4.000000,0.000000,4.000000,4.000000,4.000000,66.666664,,,,,,,,,,,,,,,,,,,
1618539830.720097,88.000000,0.000000,4159.487305,4917.436035,4140.512695,4173.846191,4633.846191,450.000000,3.000000,73.000000,,,,0.000000,4.000000,0.000000,4.000000,4.000000,4.000000,66.666664,1.000000,0.000000,0.000000,0.000000,3.000000,4.000000,0.000000,44.000000,0.000000,0.670247,0.223145,0.583496,-0.400635,0.973159,0.150393,-0.203616,11.812295,-4.270973,13.358207
1618539830.727914,89.000000,0.000000,4168.205078,4923.077148,4146.153809,4189.230957,4624.615234,450.000000,3.000000,73.000000,,,,0.000000,4.000000,0.000000,4.000000,4.000000,4.000000,66.666664,,,,,,,,,,,,,,,,,,,
1618539830.735731,90.000000,0.000000,4177.948730,4880.512695,4154.358887,4194.871582,4634.358887,450.000000,3.000000,73.000000,,,,0.000000,4.000000,0.000000,4.000000,4.000000,4.000000,66.666664,,,,,,,,45.000000,0.000000,0.670247,0.223145,0.583496,-0.400635,0.977066,0.156252,-0.204593,11.827374,-1.391445,13.398139
1618539830.743548,91.000000,0.000000,4187.692383,4943.077148,4151.282227,4186.666504,4656.410156,16198.000000,3.000000,73.000000,,,,0.000000,4.000000,0.000000,4.000000,4.000000,4.000000,66.666664,,,,,,,,,,,,,,,,,,,
1618539830.751266,92.000000,0.000000,4193.846191,4915.384766,4147.692383,4184.102539,4669.230957,450.000000,3.000000,73.000000,,,,0.000000,4.000000,0.000000,4.000000,4.000000,4.000000,66.666664,,,,,,,,46.000000,0.000000,0.670261,0.222900,0.583740,-0.400391,0.958511,0.161135,-0.219242,9.807220,1.200129,13.314448
1618539830.759083,93.000000,0.000000,4194.871582,4830.769043,4142.563965,4187.692383,4665.641113,450.000000,3.000000,73.000000,,,,0.000000,4.000000,0.000000,4.000000,4.000000,4.000000,66.666664,,,,,,,,,,,,,,,,,,,
1618539830.766901,94.000000,0.000000,4193.333496,4937.948730,4138.461426,4188.205078,4670.256348,450.000000,3.000000,73.000000,,,,0.000000,4.000000,0.000000,4.000000,4.000000,4.000000,66.666664,,,,,,,,47.000000,0.000000,0.670261,0.222900,0.583740,-0.400391,0.974624,0.162600,-0.214359,10.022806,3.652177,13.298942
1618539830.774718,95.000000,0.000000,4195.897461,5018.974121,4145.128418,4190.256348,4691.794922,16198.000000,3.000000,73.000000,,,,0.000000,4.000000,0.000000,4.000000,4.000000,4.000000,66.666664,,,,,,,,,,,,,,,,,,,
1618539830.782536,96.000000,0.000000,4221.538574,4891.794922,4152.820313,4193.333496,4691.282227,450.000000,3.000000,73.000000,,,,0.000000,4.000000,0.000000,4.000000,4.000000,4.000000,66.666664,,,,,,,,48.000000,0.000000,0.670407,0.222900,0.583740,-0.400146,0.980484,0.151858,-0.223148,8.242926,1.911206,13.165355
1618539830.790353,97.000000,0.000000,4256.922852,4846.153809,4152.307617,4192.307617,4670.256348,450.000000,3.000000,73.000000,,,,0.000000,4.000000,0.000000,4.000000,4.000000,4.000000,66.666664,,,,,,,,,,,,,,,,,,,
1618539830.798171,98.000000,0.000000,4291.794922,4951.794922,4148.205078,4198.974121,4693.333496,450.000000,3.000000,73.000000,,,,0.000000,4.000000,0.000000,4.000000,4.000000,4.000000,66.666664,,,,,,,,49.000000,0.000000,0.670488,0.222656,0.583740,-0.400146,0.963394,0.154788,-0.226566,6.700849,0.523778,13.164757
1618539830.805988,99.000000,0.000000,4360.512695,4976.410156,4137.948730,4206.153809,4792.820313,16198.000000,3.000000,73.000000,,,,0.000000,4.000000,0.000000,4.000000,4.000000,4.000000,66.666664,,,,,,,,,,,,,,,,,,,
1618539830.813806,100.000000,0.000000,4454.871582,4929.230957,4134.358887,4201.025879,4903.589844,450.000000,3.000000,73.000000,,,,0.000000,4.000000,0.000000,4.000000,4.000000,4.000000,66.666664,,,,,,,,50.000000,0.000000,0.670701,0.222656,0.583496,-0.400146,0.956069,0.154299,-0.214359,3.159626,-0.724907,13.224034
1618539830.821623,101.000000,0.000000,4526.153809,4934.358887,4144.615234,4194.871582,4976.922852,450.000000,3.000000,73.000000,,,,0.000000,4.000000,0.000000,4.000000,4.000000,4.000000,66.666664,,,,,,,,,,,,,,,,,,,
1618539830.829441,102.000000,0.000000,4587.179688,4966.666504,4153.846191,4203.589844,5038.461426,450.000000,3.000000,73.000000,,,,0.000000,4.000000,0.000000,4.000000,4.000000,4.000000,66.666664,,,,,,,,51.000000,0.000000,0.670619,0.222900,0.583496,-0.400146,0.965835,0.149905,-0.215335,5.834432,-1.788908,13.337200
1618539830.837258,103.000000,0.000000,4646.153809,4978.974121,4157.436035,4207.692383,5082.563965,16198.000000,3.000000,73.000000,,,,0.000000,4.000000,0.000000,4.000000,4.000000,4.000000,66.666664,,,,,,,,,,,,,,,,,,,
1618539830.844975,104.000000,0.000000,4678.461426,4963.589844,4153.846191,4191.794922,5090.769043,450.000000,3.000000,73.000000,,,,0.000000,4.000000,0.000000,4.000000,4.000000,4.000000,66.666664,,,,,,,,52.000000,0.000000,0.670832,0.222900,0.583252,-0.400146,0.980484,0.145998,-0.229007,6.327665,-2.866140,13.259603
1618539830.852792,105.000000,0.000000,4708.717773,4932.820313,4149.230957,4189.743652,5098.974121,450.000000,3.000000,73.000000,,,,0.000000,4.000000,0.000000,4.000000,4.000000,4.000000,66.666664,,,,,,,,,,,,,,,,,,,
1618539830.860608,106.000000,0.000000,4752.820313,4875.897461,4153.846191,4200.000000,5132.307617,450.000000,3.000000,73.000000,,,,0.000000,4.000000,0.000000,4.000000,4.000000,4.000000,66.666664,,,,,,,,53.000000,0.000000,0.670751,0.223145,0.583252,-0.400146,0.965835,0.142580,-0.220218,6.951022,-3.775834,13.429027
1618539830.868425,107.000000,0.000000,4789.230957,4874.871582,4151.794922,4196.410156,5150.256348,16198.000000,3.000000,73.000000,,,,0.000000,4.000000,0.000000,4.000000,4.000000,4.000000,66.666664,,,,,,,,,,,,,,,,,,,
1618539830.876241,108.000000,0.000000,4827.692383,4937.436035,4141.025879,4199.487305,5156.922852,450.000000,3.000000,73.000000,,,,0.000000,4.000000,0.000000,4.000000,4.000000,4.000000,66.666664,,,,,,,,54.000000,0.000000,0.670800,0.223633,0.583008,-0.400146,0.970230,0.163577,-0.231937,9.186872,-4.534742,13.521692
1618539830.884058,109.000000,0.000000,4867.692383,4877.948730,4152.307617,4200.512695,5163.077148,450.000000,3.000000,73.000000,,,,0.000000,4.000000,0.000000,4.000000,4.000000,4.000000,66.666664,,,,,,,,,,,,,,,,,,,
1618539830.891975,110.000000,0.000000,4904.615234,4793.333496,4166.666504,4188.717773,5145.128418,450.000000,3.000000,73.000000,,,,0.000000,4.000000,0.000000,4.000000,4.000000,4.000000,66.666664,,,,,,,,55.000000,0.000000,0.670783,0.224121,0.583008,-0.399902,0.976089,0.159670,-0.231449,5.576494,-1.569023,13.664907
1618539830.899792,111.000000,0.000000,4948.717773,4869.743652,4158.461426,4186.666504,5122.051270,16198.000000,3.000000,73.000000,,,,0.000000,4.000000,0.000000,4.000000,4.000000,4.000000,66.666664,,,,,,,,,,,,,,,,,,,
1618539830.907609,112.000000,0.000000,5001.538574,4875.897461,4161.025879,4178.461426,5090.769043,450.000000,3.000000,73.000000,,,,0.000000,4.000000,0.000000,4.000000,4.000000,4.000000,66.666664,,,,,,,,56.000000,0.000000,0.670977,0.224609,0.582764,-0.399658,0.961929,0.166018,-0.222171,4.181429,1.159940,13.733986
1618539830.915426,113.000000,0.000000,5059.487305,4774.358887,4169.230957,4163.589844,5047.179688,450.000000,3.000000,73.000000,,,,0.000000,4.000000,0.000000,4.000000,4.000000,4.000000,66.666664,,,,,,,,,,,,,,,,,,,
1618539830.923243,114.000000,0.000000,5115.384766,4756.410156,4140.000000,4183.077148,5035.384766,450.000000,3.000000,73.000000,,,,0.000000,4.000000,0.000000,4.000000,4.000000,4.000000,66.666664,,,,,,,,57.000000,0.000000,0.671379,0.225342,0.582520,-0.398926,0.966323,0.164553,-0.229007,6.694239,-0.092546,13.796156
1618539830.931060,115.000000,0.000000,5159.487305,4807.692383,4110.769043,4194.358887,5043.589844,16198.000000,3.000000,73.000000,,,,0.000000,4.000000,0.000000,4.000000,4.000000,4.000000,66.666664,,,,,,,,,,,,,,,,,,,
1618539830.938877,116.000000,0.000000,5223.589844,4861.025879,4118.461426,4169.743652,5040.000000,450.000000,3.000000,73.000000,,,,0.000000,4.000000,0.000000,4.000000,4.000000,4.000000,66.666664,,,,,,,,58.000000,0.000000,0.671341,0.226318,0.582520,-0.398438,0.996597,0.174807,-0.218265,5.067770,-1.279598,13.672663
1618539830.946694,117.000000,0.000000,5312.307617,4871.794922,4125.128418,4174.358887,5003.077148,450.000000,3.000000,73.000000,,,,0.000000,4.000000,0.000000,4.000000,4.000000,4.000000,66.666664,,,,,,,,,,,,,,,,,,,
1618539830.954511,118.000000,0.000000,5376.410156,4875.384766,4118.974121,4201.538574,4874.358887,450.000000,3.000000,73.000000,,,,0.000000,4.000000,0.000000,4.000000,4.000000,4.000000,66.666664,,,,,,,,59.000000,0.000000,0.671321,0.226807,0.582520,-0.398193,0.995132,0.140139,-0.225101,1.749670,1.300792,13.681150
1618539830.962228,119.000000,0.000000,5410.256348,4831.282227,4127.179688,4209.230957,4687.692383,16198.000000,3.000000,73.000000,,,,0.000000,4.000000,0.000000,4.000000,4.000000,4.000000,66.666664,,,,,,,,,,,,,,,,,,,
1618539830.970045,120.000000,0.000000,5423.077148,4700.000000,4150.769043,4192.820313,4498.461426,450.000000,3.000000,73.000000,,,,0.000000,4.000000,0.000000,4.000000,4.000000,4.000000,66.666664,,,,,,,,60.000000,0.000000,0.671301,0.227295,0.582520,-0.397949,0.982437,0.125490,-0.226566,2.771010,-0.145226,13.688788
1618539830.977861,121.000000,0.000000,5450.256348,4688.205078,4157.948730,4154.871582,4336.922852,450.000000,3.000000,73.000000,,,,0.000000,4.000000,0.000000,4.000000,4.000000,4.000000,66.666664,,,,,,,,,,,,,,,,,,,
1618539830.985678,122.000000,0.000000,5574.871582,4844.102539,4142.563965,4127.692383,4318.461426,450.000000,3.000000,73.000000,,,,0.000000,4.000000,0.000000,4.000000,4.000000,4.000000,66.666664,,,,,,,,61.000000,0.000000,0.671218,0.227539,0.582520,-0.397949,0.974624,0.141604,-0.221195,-0.078151,2.381542,13.815293
1618539830.993495,123.000000,0.000000,5705.641113,4991.794922,4127.179688,4137.948730,4353.846191,16198.000000,3.000000,73.000000,,,,0.000000,4.000000,0.000000,4.000000,4.000000,4.000000,66.666664,,,,,,,,,,,,,,,,,,,
1618539831.001312,124.000000,0.000000,5734.358887,4926.153809,4120.000000,4146.666504,4335.897461,450.000000,3.000000,73.000000,,,,0.000000,4.000000,0.000000,4.000000,4.000000,4.000000,66.666664,,,,,,,,62.000000,0.000000,0.671197,0.228027,0.582520,-0.397705,0.970718,0.141115,-0.225101,1.006340,0.827450,13.749702
1618539831.009129,125.000000,0.000000,5764.615234,4560.000000,4125.641113,4130.256348,4360.000000,450.000000,3.000000,73.000000,,,,0.000000,4.000000,0.000000,4.000000,4.000000,4.000000,66.666664,,,,,,,,,,,,,,,,,,,
1618539831.016945,126.000000,0.000000,5865.641113,4302.051270,4147.179688,4128.717773,4415.384766,450.000000,3.000000,73.000000,,,,0.000000,4.000000,0.000000,4.000000,4.000000,4.000000,66.666664,,,,,,,,63.000000,0.000000,0.671258,0.228271,0.582520,-0.397461,0.973648,0.144533,-0.233402,2.102014,-0.511418,13.750485
1618539831.024662,127.000000,0.000000,5969.230957,4462.051270,4156.922852,4148.717773,4607.692383,238.000000,3.000000,73.000000,,,,0.000000,4.000000,0.000000,4.000000,4.000000,4.000000,66.666664,,,,,,,,,,,,,,,,,,,
1618539831.032479,0.000000,0.000000,6068.717773,4574.871582,4129.743652,4148.205078,5072.307617,450.000000,3.000000,73.000000,,,,0.000000,4.000000,0.000000,4.000000,4.000000,4.000000,66.666664,,,,,,,,0.000000,0.000000,0.671191,0.228271,0.582764,-0.397217,0.977066,0.155764,-0.210452,-0.799879,2.171600,13.751190
1618539831.040296,1.000000,0.000000,6187.179688,4456.410156,4090.769287,4133.846191,5415.897461,450.000000,3.000000,73.000000,,,,0.000000,4.000000,0.000000,4.000000,4.000000,4.000000,66.666664,,,,,,,,,,,,,,,,,,,
1618539831.048113,2.000000,0.000000,6287.179688,4509.743652,4067.692383,4133.846191,5371.794922,16176.000000,3.000000,73.000000,,,,0.000000,4.000000,0.000000,4.000000,4.000000,4.000000,66.666664,,,,,,,,1.000000,0.000000,0.671252,0.228516,0.582764,-0.396973,0.971206,0.149416,-0.214359,-1.377860,4.705947,13.632195
1618539831.055929,3.000000,0.000000,6351.794922,4622.563965,4053.846191,4145.128418,5344.615234,450.000000,3.000000,73.000000,,,,0.000000,4.000000,0.000000,4.000000,4.000000,4.000000,66.666664,,,,,,,,,,,,,,,,,,,
1618539831.063746,4.000000,0.000000,6404.102539,4557.436035,4061.025635,4151.794922,5474.358887,0.000000,3.000000,73.000000,,,,0.000000,4.000000,0.000000,4.000000,4.000000,4.000000,66.666664,,,,,,,,2.000000,0.000000,0.671541,0.228516,0.582764,-0.396484,0.983413,0.157717,-0.205081,-3.931766,6.747598,13.644728
1618539831.071563,5.000000,0.000000,6431.794922,4528.205078,4084.615479,4165.641113,5486.666504,450.000000,3.000000,73.000000,,,,0.000000,4.000000,0.000000,4.000000,4.000000,4.000000,66.666664,,,,,,,,,,,,,,,,,,,
1618539831.079380,6.000000,0.000000,6414.871582,4586.666504,4095.897461,4176.410156,5416.922852,16208.000000,3.000000,73.000000,,,,0.000000,4.000000,0.000000,4.000000,4.000000,4.000000,66.666664,,,,,,,,3.000000,0.000000,0.671768,0.228271,0.582764,-0.396240,0.973159,0.113771,-0.206546,-2.342282,4.876531,13.656009
1618539831.087196,7.000000,0.000000,6383.077148,4630.256348,4094.358887,4162.563965,5409.743652,450.000000,3.000000,73.000000,,,,0.000000,4.000000,0.000000,4.000000,4.000000,4.000000,66.666664,,,,,,,,,,,,,,,,,,,
1618539831.095013,8.000000,0.000000,6394.871582,4614.871582,4106.666504,4152.820313,5433.333496,450.000000,3.000000,73.000000,,,,0.000000,4.000000,0.000000,4.000000,4.000000,4.000000,66.666664,,,,,,,,4.000000,0.000000,0.671639,0.228027,0.583008,-0.396240,0.969253,0.130373,-0.208499,-2.766023,7.140384,13.546531
1618539831.102830,9.000000,0.000000,6421.025879,4541.538574,4124.615234,4162.051270,5422.563965,16071.000000,3.000000,73.000000,,,,0.000000,4.000000,0.000000,4.000000,4.000000,4.000000,66.666664,,,,,,,,,,,,,,,,,,,
1618539831.110646,10.000000,0.000000,6419.487305,4512.820313,4121.025879,4166.153809,5398.461426,450.000000,3.000000,73.000000,,,,0.000000,4.000000,0.000000,4.000000,4.000000,4.000000,66.666664,,,,,,,,5.000000,0.000000,0.671790,0.227783,0.582764,-0.396484,0.983413,0.140139,-0.214847,-1.233298,5.230039,13.567631
1618539831.118463,11.000000,0.000000,6398.974121,4567.692383,4106.666504,4155.384766,5409.230957,16205.000000,3.000000,73.000000,,,,0.000000,4.000000,0.000000,4.000000,4.000000,4.000000,66.666664,,,,,,,,,,,,,,,,,,,
1618539831.126380,12.000000,0.000000,6361.025879,4599.487305,4097.948730,4148.717773,5433.846191,450.000000,3.000000,73.000000,,,,0.000000,4.000000,0.000000,4.000000,4.000000,4.000000,66.666664,,,,,,,,6.000000,0.000000,0.671687,0.226807,0.582764,-0.397217,0.967300,0.100099,-0.212894,-0.033291,7.279096,13.646437
1618539831.134197,13.000000,0.000000,6308.717773,4538.974121,4104.615234,4161.538574,5431.282227,450.000000,3.000000,73.000000,,,,0.000000,4.000000,0.000000,4.000000,4.000000,4.000000,66.666664,,,,,,,,,,,,,,,,,,,
1618539831.142014,14.000000,0.000000,6264.102539,4530.769043,4133.333496,4176.922852,5421.025879,450.000000,3.000000,73.000000,,,,0.000000,4.000000,0.000000,4.000000,4.000000,4.000000,66.666664,,,,,,,,7.000000,0.000000,0.671293,0.225830,0.582764,-0.398438,0.977554,0.097658,-0.210452,1.106530,9.123246,13.657546
1618539831.149832,15.000000,0.000000,6216.410156,4591.282227,4153.846191,4181.538574,5461.025879,16205.000000,3.000000,73.000000,,,,0.000000,4.000000,0.000000,4.000000,4.000000,4.000000,66.666664,,,,,,,,,,,,,,,,,,,
1618539831.157649,16.000000,0.000000,6144.102539,4583.589844,4153.333496,4174.358887,5544.102539,0.000000,3.000000,73.000000,,,,0.000000,4.000000,0.000000,4.000000,4.000000,4.000000,66.666664,,,,,,,,8.000000,0.000000,0.670829,0.224854,0.583008,-0.399414,0.972183,0.149416,-0.216312,2.192184,10.842798,13.667545
1618539831.165466,17.000000,0.000000,6058.974121,4638.461426,4161.538574,4161.538574,5602.563965,0.000000,3.000000,73.000000,,,,0.000000,4.000000,0.000000,4.000000,4.000000,4.000000,66.666664,,,,,,,,,,,,,,,,,,,
1618539831.173283,18.000000,0.000000,5970.256348,4906.666504,4186.666504,4168.205078,5650.769043,0.000000,3.000000,73.000000,,,,0.000000,4.000000,0.000000,4.000000,4.000000,4.000000,66.666664,,,,,,,,9.000000,0.000000,0.671687,0.226807,0.582764,-0.397217,0.967300,0.100099,-0.212894,3.049642,12.330579,13.736360
1618539831.181101,19.000000,0.000000,5887.692383,5027.179688,4213.846191,4177.436035,5617.948730,0.000000,3.000000,73.000000,,,,0.000000,4.000000,0.000000,4.000000,4.000000,4.000000,66.666664,,,,,,,,,,,,,,,,,,,
1618539831.188918,20.000000,0.000000,5797.436035,4872.820313,4235.897461,4169.230957,5411.794922,0.000000,3.000000,73.000000,,,,0.000000,4.000000,0.000000,4.000000,4.000000,4.000000,66.666664,,,,,,,,10.000000,0.000000,0.670829,0.224854,0.583008,-0.399414,0.972183,0.149416,-0.216312,3.940985,13.729397,13.738477
1618539831.196735,21.000000,0.000000,5618.974121,4844.615234,4249.230957,4182.563965,5209.230957,0.000000,3.000000,73.000000,,,,0.000000,4.000000,0.000000,4.000000,4.000000,4.000000,66.666664,,,,,,,,,,,,,,,,,,,
1618539831.204452,22.000000,0.000000,5383.589844,4888.717773,4256.410156,4216.922852,5108.205078,0.000000,3.000000,73.000000,,,,0.000000,4.000000,0.000000,4.000000,4.000000,4.000000,66.666664,,,,,,,,11.000000,0.000000,0.670556,0.224365,0.583008,-0.400146,0.973648,0.171389,-0.211429,4.803010,14.928518,13.680567
1618539831.212269,23.000000,0.000000,5200.000000,4783.077148,4273.333496,4231.282227,4934.358887,0.000000,3.000000,73.000000,,,,0.000000,4.000000,0.000000,4.000000,4.000000,4.000000,66.666664,,,,,,,,,,,,,,,,,,,
1618539831.220086,24.000000,0.000000,5041.025879,4705.641113,4300.000000,4223.589844,4711.282227,0.000000,3.000000,73.000000,,,,0.000000,4.000000,0.000000,4.000000,4.000000,4.000000,66.666664,1.000000,0.000000,0.000000,0.000000,3.000000,4.000000,0.000000,12.000000,0.000000,0.670492,0.224121,0.583008,-0.400391,0.970718,0.163577,-0.219730,5.339570,12.179543,13.628448
1618539831.227902,25.000000,0.000000,4853.333496,4795.384766,4307.179688,4201.025879,4632.307617,0.000000,3.000000,73.000000,,,,0.000000,4.000000,0.000000,4.000000,4.000000,4.000000,66.666664,,,,,,,,,,,,,,,,,,,
1618539831.235719,26.000000,0.000000,4712.307617,4915.384766,4285.641113,4189.230957,4617.436035,0.000000,3.000000,73.000000,,,,0.000000,4.000000,0.000000,4.000000,4.000000,4.000000,66.666664,,,,,,,,13.000000,0.000000,0.670281,0.223877,0.583008,-0.400879,0.970718,0.151858,-0.217777,2.113921,13.593466,13.641357
1618539831.243536,27.000000,0.000000,4636.922852,4896.922852,4249.230957,4204.102539,4559.487305,0.000000,3.000000,73.000000,,,,0.000000,4.000000,0.000000,4.000000,4.000000,4.000000,66.666664,,,,,,,,,,,,,,,,,,,
1618539831.251353,28.000000,0.000000,4555.897461,4856.922852,4231.794922,4205.641113,4550.256348,0.000000,3.000000,73.000000,,,,0.000000,4.000000,0.000000,4.000000,4.000000,4.000000,66.666664,,,,,,,,14.000000,0.000000,0.670071,0.223633,0.583008,-0.401367,0.979995,0.145022,-0.216800,4.953113,10.977996,13.593160
1618539831.259270,29.000000,0.000000,4472.307617,4914.358887,4247.179688,4194.871582,4597.436035,0.000000,3.000000,73.000000,,,,0.000000,4.000000,0.000000,4.000000,4.000000,4.000000,66.666664,,,,,,,,,,,,,,,,,,,
1618539831.267087,30.000000,0.000000,4387.692383,4959.487305,4265.641113,4207.692383,4629.230957,0.000000,3.000000,73.000000,,,,0.000000,4.000000,0.000000,4.000000,4.000000,4.000000,66.666664,,,,,,,,15.000000,0.000000,0.670006,0.223389,0.583008,-0.401611,0.969253,0.162112,-0.206546,5.534478,12.452257,13.609597
1618539831.274904,31.000000,0.000000,4306.153809,4946.153809,4279.487305,4225.641113,4638.974121,0.000000,3.000000,73.000000,,,,0.000000,4.000000,0.000000,4.000000,4.000000,4.000000,66.666664,,,,,,,,,,,,,,,,,,,
1618539831.282721,32.000000,0.000000,4274.871582,4918.461426,4297.436035,4238.461426,4667.179688,0.000000,3.000000,73.000000,,,,0.000000,4.000000,0.000000,4.000000,4.000000,4.000000,66.666664,,,,,,,,16.000000,0.000000,0.669876,0.222900,0.583008,-0.402100,0.971206,0.168460,-0.218753,6.177338,9.891093,13.624391
1618539831.290538,33.000000,0.000000,4271.794922,4856.410156,4312.307617,4251.794922,4696.410156,0.000000,3.000000,73.000000,,,,0.000000,4.000000,0.000000,4.000000,4.000000,4.000000,66.666664,,,,,,,,,,,,,,,,,,,
1618539831.298355,34.000000,0.000000,4229.743652,4856.410156,4313.846191,4257.436035,4690.769043,0.000000,3.000000,73.000000,,,,0.000000,4.000000,0.000000,4.000000,4.000000,4.000000,66.666664,,,,,,,,17.000000,0.000000,0.669876,0.222900,0.583008,-0.402100,0.977554,0.175784,-0.204593,6.636281,11.414229,13.757336
1618539831.306172,35.000000,0.000000,4165.128418,4929.743652,4308.205078,4258.461426,4674.871582,0.000000,3.000000,73.000000,,,,0.000000,4.000000,0.000000,4.000000,4.000000,4.000000,66.666664,,,,,,,,,,,,,,,,,,,
1618539831.313989,36.000000,0.000000,4123.589844,4905.641113,4300.000000,4253.846191,4663.589844,0.000000,3.000000,73.000000,,,,0.000000,4.000000,0.000000,4.000000,4.000000,4.000000,66.666664,,,,,,,,18.000000,0.000000,0.669957,0.222656,0.583008,-0.402100,0.977066,0.172854,-0.225589,6.929698,12.725237,13.637725
1618539831.321806,37.000000,0.000000,4094.358887,4880.000000,4296.922852,4250.256348,4641.025879,0.000000,3.000000,73.000000,,,,0.000000,4.000000,0.000000,4.000000,4.000000,4.000000,66.666664,,,,,,,,,,,,,,,,,,,
1618539831.329523,38.000000,0.000000,4073.333252,4942.051270,4304.615234,4250.769043,4631.794922,0.000000,3.000000,73.000000,,,,0.000000,4.000000,0.000000,4.000000,4.000000,4.000000,66.666664,,,,,,,,19.000000,0.000000,0.669891,0.222656,0.583252,-0.401855,0.973648,0.165530,-0.226078,9.347128,13.964958,13.649706
1618539831.337340,39.000000,0.000000,4063.076904,4916.410156,4307.692383,4248.205078,4656.410156,0.000000,3.000000,73.000000,,,,0.000000,4.000000,0.000000,4.000000,4.000000,4.000000,66.666664,,,,,,,,,,,,,,,,,,,
1618539831.345157,40.000000,0.000000,4067.692383,4837.436035,4316.410156,4250.256348,4686.666504,0.000000,3.000000,73.000000,,,,0.000000,4.000000,0.000000,4.000000,4.000000,4.000000,66.666664,,,,,,,,20.000000,0.000000,0.669956,0.222900,0.583252,-0.401611,0.970230,0.166995,-0.229984,5.780539,15.080708,13.899750
1618539831.352974,41.000000,0.000000,4097.948730,4890.256348,4329.230957,4260.000000,4724.102539,0.000000,3.000000,73.000000,,,,0.000000,4.000000,0.000000,4.000000,4.000000,4.000000,66.666664,,,,,,,,,,,,,,,,,,,
1618539831.360791,42.000000,0.000000,4133.846191,4954.871582,4329.743652,4269.230957,4775.384766,0.000000,3.000000,73.000000,,,,0.000000,4.000000,0.000000,4.000000,4.000000,4.000000,66.666664,,,,,,,,21.000000,0.000000,0.670004,0.223633,0.583252,-0.401123,0.967300,0.162112,-0.233402,8.133438,12.316514,13.765898
1618539831.368608,43.000000,0.000000,4185.128418,4937.436035,4336.922852,4287.179688,4844.102539,0.000000,3.000000,73.000000,,,,0.000000,4.000000,0.000000,4.000000,4.000000,4.000000,66.666664,,,,,,,,,,,,,,,,,,,
1618539831.376425,44.000000,0.000000,4275.384766,4940.512695,4366.153809,4305.641113,4943.077148,0.000000,3.000000,73.000000,,,,0.000000,4.000000,0.000000,4.000000,4.000000,4.000000,66.666664,,,,,,,,22.000000,0.000000,0.670325,0.224854,0.583252,-0.399902,0.964370,0.195804,-0.214847,10.430493,13.597108,13.765061
1618539831.384242,45.000000,0.000000,4364.102539,4920.512695,4390.769043,4304.615234,5050.256348,0.000000,3.000000,73.000000,,,,0.000000,4.000000,0.000000,4.000000,4.000000,4.000000,66.666664,,,,,,,,,,,,,,,,,,,
1618539831.392059,46.000000,0.000000,4446.153809,4907.179688,4395.384766,4315.897461,5134.358887,0.000000,3.000000,73.000000,,,,0.000000,4.000000,0.000000,4.000000,4.000000,4.000000,66.666664,,,,,,,,23.000000,0.000000,0.670579,0.225830,0.583252,-0.398926,0.979019,0.150881,-0.201175,12.258581,10.981275,13.824124
1618539831.399777,47.000000,0.000000,4576.410156,4927.179688,4394.358887,4339.487305,5184.102539,0.000000,3.000000,73.000000,,,,0.000000,4.000000,0.000000,4.000000,4.000000,4.000000,66.666664,,,,,,,,,,,,,,,,,,,
1618539831.407594,48.000000,0.000000,4741.025879,4884.615234,4398.461426,4326.153809,5224.615234,0.000000,3.000000,73.000000,,,,0.000000,4.000000,0.000000,4.000000,4.000000,4.000000,66.666664,,,,,,,,24.000000,0.000000,0.670979,0.226563,0.583008,-0.398193,0.966323,0.145022,-0.226566,12.109400,12.395392,13.638019
1618539831.415411,49.000000,0.000000,4911.794922,4830.769043,4396.922852,4318.461426,5288.717773,0.000000,3.000000,73.000000,,,,0.000000,4.000000,0.000000,4.000000,4.000000,4.000000,66.666664,,,,,,,,,,,,,,,,,,,
1618539831.423228,50.000000,0.000000,5099.487305,4778.974121,4374.871582,4337.948730,5369.230957,0.000000,3.000000,73.000000,,,,0.000000,4.000000,0.000000,4.000000,4.000000,4.000000,66.666664,,,,,,,,25.000000,0.000000,0.670959,0.227051,0.583008,-0.397949,0.973159,0.115236,-0.211917,12.034951,9.959546,13.649970
1618539831.431045,51.000000,0.000000,5228.717773,4735.384766,4344.615234,4329.743652,5366.153809,0.000000,3.000000,73.000000,,,,0.000000,4.000000,0.000000,4.000000,4.000000,4.000000,66.666664,,,,,,,,,,,,,,,,,,,
1618539831.438862,52.000000,0.000000,5293.846191,4785.641113,4334.358887,4308.205078,5248.717773,0.000000,3.000000,73.000000,,,,0.000000,4.000000,0.000000,4.000000,4.000000,4.000000,66.666664,,,,,,,,26.000000,0.000000,0.671089,0.227295,0.582764,-0.397949,0.974136,0.127932,-0.220218,11.967949,11.655283,13.720542
1618539831.446679,53.000000,0.000000,5426.666504,4885.641113,4349.743652,4291.282227,5148.205078,0.000000,3.000000,73.000000,,,,0.000000,4.000000,0.000000,4.000000,4.000000,4.000000,66.666664,,,,,,,,,,,,,,,,,,,
1618539831.454496,54.000000,0.000000,5603.589844,4945.641113,4364.102539,4260.512695,5127.179688,0.000000,3.000000,73.000000,,,,0.000000,4.000000,0.000000,4.000000,4.000000,4.000000,66.666664,,,,,,,,27.000000,0.000000,0.671089,0.227295,0.582764,-0.397949,0.966812,0.127443,-0.208499,11.847830,9.293447,13.604610
1618539831.462313,55.000000,0.000000,5700.000000,4923.077148,4349.230957,4247.692383,5111.282227,0.000000,3.000000,73.000000,,,,0.000000,4.000000,0.000000,4.000000,4.000000,4.000000,66.666664,,,,,,,,,,,,,,,,,,,
1618539831.470230,56.000000,0.000000,5742.051270,4907.179688,4311.794922,4265.128418,5076.922852,0.000000,3.000000,73.000000,,,,0.000000,4.000000,0.000000,4.000000,4.000000,4.000000,66.666664,,,,,,,,28.000000,0.000000,0.671238,0.227051,0.582520,-0.398193,0.976577,0.116701,-0.211917,11.739724,7.167795,13.799349
1618539831.478047,57.000000,0.000000,5789.743652,4958.461426,4287.692383,4260.512695,5088.205078,0.000000,3.000000,73.000000,,,,0.000000,4.000000,0.000000,4.000000,4.000000,4.000000,66.666664,,,,,,,,,,,,,,,,,,,
1618539831.485864,58.000000,0.000000,5821.025879,4980.000000,4276.410156,4241.025879,5114.871582,0.000000,3.000000,73.000000,,,,0.000000,4.000000,0.000000,4.000000,4.000000,4.000000,66.666664,,,,,,,,29.000000,0.000000,0.671325,0.226563,0.582275,-0.398682,0.974624,0.116701,-0.208499,7.874060,5.135077,13.914799
1618539831.493682,59.000000,0.000000,5841.538574,4942.051270,4257.436035,4245.128418,5101.538574,0.000000,3.000000,73.000000,,,,0.000000,4.000000,0.000000,4.000000,4.000000,4.000000,66.666664,,,,,,,,,,,,,,,,,,,
1618539831.501499,60.000000,0.000000,5870.256348,4903.077148,4247.179688,4256.410156,5106.153809,0.000000,3.000000,73.000000,,,,0.000000,4.000000,0.000000,4.000000,4.000000,4.000000,66.666664,,,,,,,,30.000000,0.000000,0.671073,0.225586,0.582275,-0.399658,0.972671,0.132815,-0.208988,6.129608,3.365447,13.899072
1618539831.509316,61.000000,0.000000,5866.666504,4897.948730,4242.051270,4271.794922,5126.666504,0.000000,3.000000,73.000000,,,,0.000000,4.000000,0.000000,4.000000,4.000000,4.000000,66.666664,,,,,,,,,,,,,,,,,,,
1618539831.517134,62.000000,0.000000,5816.922852,4935.897461,4233.846191,4269.743652,5105.128418,0.000000,3.000000,73.000000,,,,0.000000,4.000000,0.000000,4.000000,4.000000,4.000000,66.666664,,,,,,,,31.000000,0.000000,0.670543,0.224365,0.582520,-0.400879,0.982437,0.130861,-0.228031,8.387785,1.772780,13.884918
1618539831.524951,63.000000,0.000000,5734.871582,4978.461426,4240.000000,4247.179688,5068.717773,0.000000,3.000000,73.000000,,,,0.000000,4.000000,0.000000,4.000000,4.000000,4.000000,66.666664,,,,,,,,,,,,,,,,,,,
1618539831.532768,64.000000,0.000000,5601.538574,4917.948730,4272.820313,4275.897461,5035.384766,450.000000,3.000000,73.000000,,,,0.000000,4.000000,0.000000,4.000000,4.000000,4.000000,66.666664,,,,,,,,32.000000,0.000000,0.670055,0.223877,0.582764,-0.401611,0.980972,0.166018,-0.228031,8.745314,4.227378,13.872180
1618539831.540585,65.000000,0.000000,5408.717773,4811.794922,4322.051270,4331.794922,4919.487305,450.000000,3.000000,73.000000,,,,0.000000,4.000000,0.000000,4.000000,4.000000,4.000000,66.666664,,,,,,,,,,,,,,,,,,,
1618539831.548302,66.000000,0.000000,5230.256348,4813.846191,4350.769043,4328.717773,4755.384766,16198.000000,3.000000,73.000000,,,,0.000000,4.000000,0.000000,4.000000,4.000000,4.000000,66.666664,,,,,,,,33.000000,0.000000,0.669990,0.223633,0.582764,-0.401855,0.970230,0.181155,-0.219730,7.093183,2.488702,13.860715
1618539831.556119,67.000000,0.000000,5091.794922,4897.948730,4348.205078,4306.153809,4703.589844,450.000000,3.000000,73.000000,,,,0.000000,4.000000,0.000000,4.000000,4.000000,4.000000,66.666664,,,,,,,,,,,,,,,,,,,
1618539831.563937,68.000000,0.000000,4930.769043,4869.743652,4356.410156,4323.077148,4746.666504,0.000000,3.000000,73.000000,,,,0.000000,4.000000,0.000000,4.000000,4.000000,4.000000,66.666664,,,,,,,,34.000000,0.000000,0.670072,0.223389,0.582764,-0.401855,0.976089,0.163088,-0.231449,9.494264,0.983709,13.910213
1618539831.571754,69.000000,0.000000,4753.846191,4686.666504,4391.282227,4329.743652,4791.282227,450.000000,3.000000,73.000000,,,,0.000000,4.000000,0.000000,4.000000,4.000000,4.000000,66.666664,,,,,,,,,,,,,,,,,,,
1618539831.579571,70.000000,0.000000,4637.436035,4663.077148,4421.538574,4317.948730,4847.692383,16202.000000,3.000000,73.000000,,,,0.000000,4.000000,0.000000,4.000000,4.000000,4.000000,66.666664,,,,,,,,35.000000,0.000000,0.669713,0.223389,0.583008,-0.402100,0.970230,0.142092,-0.224613,11.535605,-0.490415,13.595868
1618539831.587388,71.000000,0.000000,4566.153809,4825.641113,4427.179688,4317.436035,4887.692383,450.000000,3.000000,73.000000,,,,0.000000,4.000000,0.000000,4.000000,4.000000,4.000000,66.666664,,,,,,,,,,,,,,,,,,,
1618539831.595205,72.000000,0.000000,4466.153809,4887.692383,4402.563965,4312.820313,4860.000000,450.000000,3.000000,73.000000,,,,0.000000,4.000000,0.000000,4.000000,4.000000,4.000000,66.666664,,,,,,,,36.000000,0.000000,0.669794,0.223145,0.583008,-0.402100,0.975113,0.167971,-0.216312,9.484815,2.070872,13.552219
1618539831.603022,73.000000,0.000000,4356.922852,4824.102539,4352.307617,4312.307617,4818.974121,16083.000000,3.000000,73.000000,,,,0.000000,4.000000,0.000000,4.000000,4.000000,4.000000,66.666664,,,,,,,,,,,,,,,,,,,
1618539831.610839,74.000000,0.000000,4273.846191,4804.615234,4318.974121,4326.666504,4806.153809,450.000000,3.000000,73.000000,,,,0.000000,4.000000,0.000000,4.000000,4.000000,4.000000,66.666664,,,,,,,,37.000000,0.000000,0.669648,0.223145,0.583008,-0.402344,0.971695,0.172366,-0.208011,5.725010,0.607662,13.453120
1618539831.618756,75.000000,0.000000,4199.487305,4855.897461,4323.589844,4343.077148,4790.769043,16221.000000,3.000000,73.000000,,,,0.000000,4.000000,0.000000,4.000000,4.000000,4.000000,66.666664,,,,,,,,,,,,,,,,,,,
1618539831.626573,76.000000,0.000000,4127.179688,4896.410156,4344.615234,4352.820313,4771.282227,450.000000,3.000000,73.000000,,,,0.000000,4.000000,0.000000,4.000000,4.000000,4.000000,66.666664,,,,,,,,38.000000,0.000000,0.669435,0.223145,0.583252,-0.402344,0.973648,0.154299,-0.219242,8.143278,-0.828858,13.184484
1618539831.634390,77.000000,0.000000,4067.692383,4932.307617,4365.641113,4362.563965,4765.641113,450.000000,3.000000,73.000000,,,,0.000000,4.000000,0.000000,4.000000,4.000000,4.000000,66.666664,,,,,,,,,,,,,,,,,,,
1618539831.642207,78.000000,0.000000,4031.281982,4903.589844,4381.538574,4371.794922,4779.487305,450.000000,3.000000,73.000000,,,,0.000000,4.000000,0.000000,4.000000,4.000000,4.000000,66.666664,,,,,,,,39.000000,0.000000,0.669516,0.222900,0.583252,-0.402344,0.978531,0.159182,-0.214359,10.259903,-2.002095,13.122159
1618539831.650024,79.000000,0.000000,4021.025635,4814.871582,4392.307617,4380.000000,4797.436035,16221.000000,3.000000,73.000000,,,,0.000000,4.000000,0.000000,4.000000,4.000000,4.000000,66.666664,,,,,,,,,,,,,,,,,,,
1618539831.657841,80.000000,0.000000,4021.025635,4836.922852,4393.846191,4389.743652,4791.794922,450.000000,3.000000,73.000000,,,,0.000000,4.000000,0.000000,4.000000,4.000000,4.000000,66.666664,,,,,,,,40.000000,0.000000,0.669648,0.223145,0.583008,-0.402344,0.971695,0.172366,-0.208011,8.575944,-3.177639,13.305327
1618539831.665658,81.000000,0.000000,4011.281982,4943.589844,4387.692383,4394.358887,4787.179688,450.000000,3.000000,73.000000,,,,0.000000,4.000000,0.000000,4.000000,4.000000,4.000000,66.666664,,,,,,,,,,,,,,,,,,,
1618539831.673475,82.000000,0.000000,3997.435791,4959.487305,4392.307617,4392.820313,4796.922852,450.000000,3.000000,73.000000,,,,0.000000,4.000000,0.000000,4.000000,4.000000,4.000000,66.666664,,,,,,,,41.000000,0.000000,0.669516,0.222900,0.583252,-0.402344,0.978531,0.159182,-0.214359,10.649302,-4.115997,13.230917
1618539831.681292,83.000000,0.000000,3984.615479,4898.461426,4415.897461,4388.205078,4798.461426,16221.000000,3.000000,73.000000,,,,0.000000,4.000000,0.000000,4.000000,4.000000,4.000000,66.666664,,,,,,,,,,,,,,,,,,,
1618539831.689109,84.000000,0.000000,3973.333252,4885.128418,4437.436035,4381.025879,4798.461426,450.000000,3.000000,73.000000,,,,0.000000,4.000000,0.000000,4.000000,4.000000,4.000000,66.666664,,,,,,,,42.000000,0.000000,0.669450,0.222900,0.583496,-0.402100,0.973159,0.172366,-0.206546,6.832865,-1.192152,13.283579
1618539831.696826,85.000000,0.000000,3967.692383,4869.743652,4449.230957,4380.000000,4803.589844,450.000000,3.000000,73.000000,,,,0.000000,4.000000,0.000000,4.000000,4.000000,4.000000,66.666664,,,,,,,,,,,,,,,,,,,
1618539831.704643,86.000000,0.000000,3954.871826,4836.410156,4457.948730,4387.692383,4803.589844,450.000000,3.000000,73.000000,,,,0.000000,4.000000,0.000000,4.000000,4.000000,4.000000,66.666664,,,,,,,,43.000000,0.000000,0.669597,0.222900,0.583496,-0.401855,0.981949,0.163577,-0.212894,7.046809,-2.269244,13.330975
1618539831.712460,87.000000,0.000000,3940.000000,4900.000000,4457.948730,4390.769043,4813.846191,16221.000000,3.000000,73.000000,,,,0.000000,4.000000,0.000000,4.000000,4.000000,4.000000,66.666664,,,,,,,,,,,,,,,,,,,
1618539831.720277,88.000000,0.000000,3943.076904,4934.871582,4449.230957,4385.641113,4838.974121,450.000000,3.000000,73.000000,,,,0.000000,4.000000,0.000000,4.000000,4.000000,4.000000,66.666664,1.000000,0.000000,0.000000,0.000000,3.000000,4.000000,0.000000,44.000000,0.000000,0.669597,0.222900,0.583496,-0.401855,0.965347,0.159670,-0.210452,3.710252,0.649372,13.313815
1618539831.728094,89.000000,0.000000,3956.923096,4837.948730,4451.794922,4382.563965,4855.897461,450.000000,3.000000,73.000000,,,,0.000000,4.000000,0.000000,4.000000,4.000000,4.000000,66.666664,,,,,,,,,,,,,,,,,,,
1618539831.735911,90.000000,0.000000,3962.564209,4816.410156,4458.461426,4392.307617,4859.487305,450.000000,3.000000,73.000000,,,,0.000000,4.000000,0.000000,4.000000,4.000000,4.000000,66.666664,,,,,,,,45.000000,0.000000,0.669824,0.222656,0.583496,-0.401611,0.958511,0.160159,-0.210452,4.535534,-0.731504,13.358187
1618539831.743728,91.000000,0.000000,3961.538574,4863.077148,4456.410156,4397.948730,4863.589844,16221.000000,3.000000,73.000000,,,,0.000000,4.000000,0.000000,4.000000,4.000000,4.000000,66.666664,,,,,,,,,,,,,,,,,,,
1618539831.751545,92.000000,0.000000,3961.538574,4840.000000,4463.077148,4390.769043,4870.769043,450.000000,3.000000,73.000000,,,,0.000000,4.000000,0.000000,4.000000,4.000000,4.000000,66.666664,,,,,,,,46.000000,0.000000,0.669824,0.222656,0.583496,-0.401611,0.950210,0.156741,-0.214847,5.278288,-2.034107,13.398122
1618539831.759462,93.000000,0.000000,3965.641113,4869.743652,4477.436035,4394.871582,4876.922852,450.000000,3.000000,73.000000,,,,0.000000,4.000000,0.000000,4.000000,4.000000,4.000000,66.666664,,,,,,,,,,,,,,,,,,,
1618539831.767278,94.000000,0.000000,3971.281982,4926.666504,4477.436035,4407.179688,4875.897461,450.000000,3.000000,73.000000,,,,0.000000,4.000000,0.000000,4.000000,4.000000,4.000000,66.666664,,,,,,,,47.000000,0.000000,0.670264,0.222412,0.583252,-0.401367,0.973159,0.163088,-0.214847,3.972860,-3.266265,13.493878
1618539831.775095,95.000000,0.000000,3968.718018,4893.333496,4474.358887,4407.179688,4866.153809,16221.000000,3.000000,73.000000,,,,0.000000,4.000000,0.000000,4.000000,4.000000,4.000000,66.666664,,,,,,,,,,,,,,,,,,,
1618539831.782911,96.000000,0.000000,3962.564209,4841.025879,4480.512695,4403.077148,4861.025879,450.000000,3.000000,73.000000,,,,0.000000,4.000000,0.000000,4.000000,4.000000,4.000000,66.666664,,,,,,,,48.000000,0.000000,0.670264,0.222412,0.583252,-0.401367,0.983413,0.150393,-0.231449,2.678343,-4.255577,13.460428
1618539831.790728,97.000000,0.000000,3966.666748,4822.563965,4482.051270,4404.615234,4868.717773,450.000000,3.000000,73.000000,,,,0.000000,4.000000,0.000000,4.000000,4.000000,4.000000,66.666664,,,,,,,,,,,,,,,,,,,
1618539831.798544,98.000000,0.000000,3976.410156,4857.436035,4482.563965,4404.615234,4877.436035,450.000000,3.000000,73.000000,,,,0.000000,4.000000,0.000000,4.000000,4.000000,4.000000,66.666664,,,,,,,,49.000000,0.000000,0.670264,0.222412,0.583252,-0.401367,0.979019,0.157229,-0.224125,-0.400813,-1.078512,13.490139
1618539831.806461,99.000000,0.000000,3970.256348,4931.794922,4479.487305,4400.512695,4870.256348,16221.000000,3.000000,73.000000,,,,0.000000,4.000000,0.000000,4.000000,4.000000,4.000000,66.666664,,,,,,,,,,,,,,,,,,,
1618539831.814278,100.000000,0.000000,3953.846191,4911.794922,4468.717773,4396.410156,4855.384766,450.000000,3.000000,73.000000,,,,0.000000,4.000000,0.000000,4.000000,4.000000,4.000000,66.666664,,,,,,,,50.000000,0.000000,0.670331,0.222412,0.583008,-0.401611,0.962417,0.151858,-0.214847,0.656129,-2.226784,13.576694
1618539831.822095,101.000000,0.000000,3946.666748,4806.153809,4467.179688,4387.692383,4852.820313,450.000000,3.000000,73.000000,,,,0.000000,4.000000,0.000000,4.000000,4.000000,4.000000,66.666664,,,,,,,,,,,,,,,,,,,
1618539831.829912,102.000000,0.000000,3949.230713,4801.025879,4471.794922,4382.051270,4853.333496,450.000000,3.000000,73.000000,,,,0.000000,4.000000,0.000000,4.000000,4.000000,4.000000,66.666664,,,,,,,,51.000000,0.000000,0.670331,0.222412,0.583008,-0.401611,0.979019,0.149416,-0.225101,1.846639,0.567956,13.534963
1618539831.837730,103.000000,0.000000,3950.256348,4878.974121,4466.153809,4380.512695,4852.820313,16221.000000,3.000000,73.000000,,,,0.000000,4.000000,0.000000,4.000000,4.000000,4.000000,66.666664,,,,,,,,,,,,,,,,,,,
1618539831.845547,104.000000,0.000000,3951.281982,4906.666504,4453.846191,4367.692383,4859.487305,450.000000,3.000000,73.000000,,,,0.000000,4.000000,0.000000,4.000000,4.000000,4.000000,66.666664,,,,,,,,52.000000,0.000000,0.670397,0.222412,0.582764,-0.401855,0.975601,0.149416,-0.214359,2.798467,-0.804778,13.497404
1618539831.853364,105.000000,0.000000,3958.461426,4868.717773,4450.769043,4362.563965,4869.230957,450.000000,3.000000,73.000000,,,,0.000000,4.000000,0.000000,4.000000,4.000000,4.000000,66.666664,,,,,,,,,,,,,,,,,,,
1618539831.861181,106.000000,0.000000,3962.051270,4842.051270,4459.487305,4373.333496,4871.794922,450.000000,3.000000,73.000000,,,,0.000000,4.000000,0.000000,4.000000,4.000000,4.000000,66.666664,,,,,,,,53.000000,0.000000,0.670169,0.222656,0.582764,-0.402100,0.972671,0.161135,-0.221683,3.714928,1.787945,13.523417
1618539831.868998,107.000000,0.000000,3959.487061,4861.025879,4462.563965,4377.436035,4870.769043,16221.000000,3.000000,73.000000,,,,0.000000,4.000000,0.000000,4.000000,4.000000,4.000000,66.666664,,,,,,,,,,,,,,,,,,,
1618539831.876815,108.000000,0.000000,3960.000000,4863.589844,4462.563965,4386.153809,4874.871582,450.000000,3.000000,73.000000,,,,0.000000,4.000000,0.000000,4.000000,4.000000,4.000000,66.666664,,,,,,,,54.000000,0.000000,0.670381,0.222656,0.582520,-0.402100,0.958022,0.155276,-0.210452,4.420112,0.233397,13.606645
1618539831.884532,109.000000,0.000000,3967.692383,4860.000000,4469.743652,4405.128418,4881.025879,450.000000,3.000000,73.000000,,,,0.000000,4.000000,0.000000,4.000000,4.000000,4.000000,66.666664,,,,,,,,,,,,,,,,,,,
1618539831.892349,110.000000,0.000000,3979.487061,4910.769043,4470.769043,4409.230957,4885.128418,450.000000,3.000000,73.000000,,,,0.000000,4.000000,0.000000,4.000000,4.000000,4.000000,66.666664,,,,,,,,55.000000,0.000000,0.670235,0.222656,0.582520,-0.402344,0.969253,0.169924,-0.223148,3.140685,2.542857,13.561918
