title:S33, start timestamp:1618540017.296855, stop timestamp:1618540128.145181, headset type:INSIGHT, headset serial:A2D202F3, headset firmware:932, channels:40, sampling rate:eeg_128;mot_64, samples:14184     , version:2.1, 
Timestamp,EEG.Counter,EEG.Interpolated,EEG.AF3,EEG.T7,EEG.Pz,EEG.T8,EEG.AF4,EEG.RawCq,EEG.Battery,EEG.BatteryPercent,MarkerIndex,MarkerType,MarkerValueInt,EEG.MarkerHardware,CQ.AF3,CQ.T7,CQ.Pz,CQ.T8,CQ.AF4,CQ.Overall,EQ.SampleRateQuality,EQ.OVERALL,EQ.AF3,EQ.T7,EQ.Pz,EQ.T8,EQ.AF4,MOT.CounterMems,MOT.InterpolatedMems,MOT.Q0,MOT.Q1,MOT.Q2,MOT.Q3,MOT.AccX,MOT.AccY,MOT.AccZ,MOT.MagX,MOT.MagY,MOT.MagZ
1618540017.296855,27.000000,0.000000,4254.871582,4864.615234,4172.307617,4182.563965,4205.128418,0.000000,3.000000,73.000000,,,,0.000000,4.000000,0.000000,4.000000,4.000000,4.000000,66.666664,,,,,,,,,,,,,,,,,,,
1618540017.304771,28.000000,0.000000,4257.436035,4911.282227,4185.128418,4189.230957,4208.717773,0.000000,3.000000,73.000000,,,,0.000000,4.000000,0.000000,4.000000,4.000000,4.000000,66.666664,,,,,,,,14.000000,0.000000,0.731734,0.159180,0.592285,-0.297363,0.970718,0.095216,-0.230961,5.055309,-0.339556,15.146976
1618540017.312588,29.000000,0.000000,4256.410156,4891.794922,4187.179688,4193.846191,4217.948730,0.000000,3.000000,73.000000,,,,0.000000,4.000000,0.000000,4.000000,4.000000,4.000000,66.666664,,,,,,,,,,,,,,,,,,,
1618540017.320404,30.000000,0.000000,4258.461426,4876.922852,4188.717773,4191.282227,4224.615234,0.000000,3.000000,73.000000,,,,0.000000,4.000000,0.000000,4.000000,4.000000,4.000000,66.666664,,,,,,,,15.000000,0.000000,0.731537,0.159180,0.592529,-0.297363,0.964858,0.110842,-0.241703,2.037533,2.326275,14.948215
1618540017.328220,31.000000,0.000000,4253.333496,4889.230957,4187.179688,4187.692383,4218.461426,0.000000,3.000000,73.000000,,,,0.000000,4.000000,0.000000,4.000000,4.000000,4.000000,66.666664,,,,,,,,,,,,,,,,,,,
1618540017.336037,32.000000,0.000000,4241.025879,4877.436035,4182.051270,4187.692383,4210.256348,0.000000,3.000000,73.000000,,,,0.000000,4.000000,0.000000,4.000000,4.000000,4.000000,66.666664,,,,,,,,16.000000,0.000000,0.731590,0.158936,0.592529,-0.297363,0.974136,0.116213,-0.243656,-0.678466,4.665709,15.008594
1618540017.343853,33.000000,0.000000,4238.461426,4898.974121,4185.641113,4185.128418,4209.230957,0.000000,3.000000,73.000000,,,,0.000000,4.000000,0.000000,4.000000,4.000000,4.000000,66.666664,,,,,,,,,,,,,,,,,,,
1618540017.351669,34.000000,0.000000,4245.641113,4932.307617,4196.410156,4185.128418,4211.794922,0.000000,3.000000,73.000000,,,,0.000000,4.000000,0.000000,4.000000,4.000000,4.000000,66.666664,,,,,,,,17.000000,0.000000,0.731689,0.158936,0.592529,-0.297119,0.978042,0.105470,-0.248539,0.705319,6.771198,14.943303
1618540017.359486,35.000000,0.000000,4253.333496,4898.974121,4198.974121,4194.871582,4214.871582,0.000000,3.000000,73.000000,,,,0.000000,4.000000,0.000000,4.000000,4.000000,4.000000,66.666664,,,,,,,,,,,,,,,,,,,
1618540017.367402,36.000000,0.000000,4253.846191,4880.512695,4194.358887,4193.333496,4215.897461,0.000000,3.000000,73.000000,,,,0.000000,4.000000,0.000000,4.000000,4.000000,4.000000,66.666664,,,,,,,,18.000000,0.000000,0.731742,0.158691,0.592529,-0.297119,0.969253,0.101076,-0.252934,0.036633,4.957587,15.004172
1618540017.375218,37.000000,0.000000,4251.794922,4915.897461,4188.717773,4185.128418,4214.871582,0.000000,3.000000,73.000000,,,,0.000000,4.000000,0.000000,4.000000,4.000000,4.000000,66.666664,,,,,,,,,,,,,,,,,,,
1618540017.383035,38.000000,0.000000,4253.846191,4900.512695,4184.102539,4181.538574,4214.358887,0.000000,3.000000,73.000000,,,,0.000000,4.000000,0.000000,4.000000,4.000000,4.000000,66.666664,,,,,,,,19.000000,0.000000,0.731742,0.158691,0.592529,-0.297119,0.966323,0.087404,-0.248539,-0.565184,3.205705,14.999139
1618540017.390851,39.000000,0.000000,4254.871582,4844.615234,4189.743652,4184.615234,4210.769043,0.000000,3.000000,73.000000,,,,0.000000,4.000000,0.000000,4.000000,4.000000,4.000000,66.666664,,,,,,,,,,,,,,,,,,,
1618540017.398667,40.000000,0.000000,4255.897461,4883.589844,4199.487305,4196.922852,4213.846191,0.000000,3.000000,73.000000,,,,0.000000,4.000000,0.000000,4.000000,4.000000,4.000000,66.666664,,,,,,,,20.000000,0.000000,0.731689,0.158936,0.592529,-0.297119,0.978042,0.105470,-0.248539,0.627827,5.517011,14.874979
1618540017.406483,41.000000,0.000000,4260.000000,4940.000000,4204.102539,4200.000000,4224.102539,0.000000,3.000000,73.000000,,,,0.000000,4.000000,0.000000,4.000000,4.000000,4.000000,66.666664,,,,,,,,,,,,,,,,,,,
1618540017.414300,42.000000,0.000000,4255.897461,4916.922852,4202.051270,4187.692383,4220.000000,0.000000,3.000000,73.000000,,,,0.000000,4.000000,0.000000,4.000000,4.000000,4.000000,66.666664,,,,,,,,21.000000,0.000000,0.731742,0.158691,0.592529,-0.297119,0.966323,0.087404,-0.248539,-0.033110,3.709187,14.882865
1618540017.422216,43.000000,0.000000,4246.153809,4900.512695,4195.897461,4187.692383,4205.641113,0.000000,3.000000,73.000000,,,,0.000000,4.000000,0.000000,4.000000,4.000000,4.000000,66.666664,,,,,,,,,,,,,,,,,,,
1618540017.430033,44.000000,0.000000,4252.820313,4908.717773,4188.717773,4203.077148,4213.846191,0.000000,3.000000,73.000000,,,,0.000000,4.000000,0.000000,4.000000,4.000000,4.000000,66.666664,,,,,,,,22.000000,0.000000,0.731742,0.158691,0.592529,-0.297119,0.971695,0.114748,-0.246098,1.286139,2.201777,14.830148
1618540017.437849,45.000000,0.000000,4261.025879,4862.563965,4194.358887,4197.948730,4227.692383,0.000000,3.000000,73.000000,,,,0.000000,4.000000,0.000000,4.000000,4.000000,4.000000,66.666664,,,,,,,,,,,,,,,,,,,
1618540017.445666,46.000000,0.000000,4258.461426,4797.948730,4209.230957,4194.871582,4218.974121,0.000000,3.000000,73.000000,,,,0.000000,4.000000,0.000000,4.000000,4.000000,4.000000,66.666664,,,,,,,,23.000000,0.000000,0.731742,0.158691,0.592529,-0.297119,0.968277,0.092775,-0.250980,4.447371,0.904922,14.842517
1618540017.453482,47.000000,0.000000,4257.948730,4870.769043,4213.846191,4214.358887,4211.282227,0.000000,3.000000,73.000000,,,,0.000000,4.000000,0.000000,4.000000,4.000000,4.000000,66.666664,,,,,,,,,,,,,,,,,,,
1618540017.461299,48.000000,0.000000,4261.025879,4988.205078,4216.410156,4222.051270,4220.512695,0.000000,3.000000,73.000000,,,,0.000000,4.000000,0.000000,4.000000,4.000000,4.000000,66.666664,,,,,,,,24.000000,0.000000,0.731742,0.158691,0.592529,-0.297119,0.985367,0.112795,-0.249027,1.490388,3.386491,14.793834
1618540017.469116,49.000000,0.000000,4261.025879,4974.358887,4217.948730,4210.256348,4229.743652,0.000000,3.000000,73.000000,,,,0.000000,4.000000,0.000000,4.000000,4.000000,4.000000,66.666664,,,,,,,,,,,,,,,,,,,
1618540017.476932,50.000000,0.000000,4256.410156,4876.922852,4205.641113,4197.948730,4222.563965,0.000000,3.000000,73.000000,,,,0.000000,4.000000,0.000000,4.000000,4.000000,4.000000,66.666664,,,,,,,,25.000000,0.000000,0.731689,0.158936,0.592529,-0.297119,0.976089,0.113771,-0.247562,4.750825,1.851534,14.929465
1618540017.484848,51.000000,0.000000,4245.128418,4827.179688,4188.205078,4198.461426,4207.179688,0.000000,3.000000,73.000000,,,,0.000000,4.000000,0.000000,4.000000,4.000000,4.000000,66.666664,,,,,,,,,,,,,,,,,,,
1618540017.492665,52.000000,0.000000,4236.410156,4864.102539,4182.563965,4201.538574,4201.025879,0.000000,3.000000,73.000000,,,,0.000000,4.000000,0.000000,4.000000,4.000000,4.000000,66.666664,,,,,,,,26.000000,0.000000,0.731636,0.159180,0.592529,-0.297119,0.970230,0.097658,-0.253422,5.711311,0.589704,14.812272
1618540017.500481,53.000000,0.000000,4236.410156,4935.384766,4181.025879,4198.974121,4203.077148,0.000000,3.000000,73.000000,,,,0.000000,4.000000,0.000000,4.000000,4.000000,4.000000,66.666664,,,,,,,,,,,,,,,,,,,
1618540017.508297,54.000000,0.000000,4237.436035,4931.282227,4181.025879,4191.282227,4206.666504,0.000000,3.000000,73.000000,,,,0.000000,4.000000,0.000000,4.000000,4.000000,4.000000,66.666664,,,,,,,,27.000000,0.000000,0.731636,0.159180,0.592529,-0.297119,0.957534,0.113771,-0.245609,6.396303,-0.665573,14.826429
1618540017.516114,55.000000,0.000000,4238.974121,4837.948730,4186.153809,4193.333496,4218.461426,0.000000,3.000000,73.000000,,,,0.000000,4.000000,0.000000,4.000000,4.000000,4.000000,66.666664,,,,,,,,,,,,,,,,,,,
1618540017.523930,56.000000,0.000000,4242.051270,4804.615234,4187.179688,4196.410156,4225.128418,0.000000,3.000000,73.000000,,,,0.000000,4.000000,0.000000,4.000000,4.000000,4.000000,66.666664,,,,,,,,28.000000,0.000000,0.731735,0.159180,0.592529,-0.296875,0.971695,0.093263,-0.241703,5.098704,2.092675,14.958801
1618540017.531746,57.000000,0.000000,4246.153809,4907.179688,4182.051270,4187.179688,4210.769043,0.000000,3.000000,73.000000,,,,0.000000,4.000000,0.000000,4.000000,4.000000,4.000000,66.666664,,,,,,,,,,,,,,,,,,,
1618540017.539663,58.000000,0.000000,4252.820313,4973.333496,4186.666504,4184.102539,4207.692383,0.000000,3.000000,73.000000,,,,0.000000,4.000000,0.000000,4.000000,4.000000,4.000000,66.666664,,,,,,,,29.000000,0.000000,0.731735,0.159180,0.592529,-0.296875,0.967788,0.111818,-0.239750,5.785141,0.627285,14.898490
1618540017.547479,59.000000,0.000000,4257.436035,4895.897461,4195.384766,4191.282227,4220.000000,0.000000,3.000000,73.000000,,,,0.000000,4.000000,0.000000,4.000000,4.000000,4.000000,66.666664,,,,,,,,,,,,,,,,,,,
1618540017.555296,60.000000,0.000000,4256.410156,4849.230957,4189.230957,4190.769043,4203.589844,0.000000,3.000000,73.000000,,,,0.000000,4.000000,0.000000,4.000000,4.000000,4.000000,66.666664,,,,,,,,30.000000,0.000000,0.731834,0.159180,0.592529,-0.296631,0.965347,0.110842,-0.236332,6.582380,-0.751381,14.904025
1618540017.563112,61.000000,0.000000,4250.769043,4883.077148,4186.666504,4181.538574,4162.051270,0.000000,3.000000,73.000000,,,,0.000000,4.000000,0.000000,4.000000,4.000000,4.000000,66.666664,,,,,,,,,,,,,,,,,,,
1618540017.570929,62.000000,0.000000,4244.102539,4920.512695,4199.487305,4178.461426,4143.077148,0.000000,3.000000,73.000000,,,,0.000000,4.000000,0.000000,4.000000,4.000000,4.000000,66.666664,,,,,,,,31.000000,0.000000,0.731834,0.159180,0.592529,-0.296631,0.959487,0.104494,-0.244633,5.266173,1.955633,14.849192
1618540017.578745,63.000000,0.000000,4247.179688,4906.153809,4204.615234,4181.538574,4152.307617,0.000000,3.000000,73.000000,,,,0.000000,4.000000,0.000000,4.000000,4.000000,4.000000,66.666664,,,,,,,,,,,,,,,,,,,
1618540017.586562,64.000000,0.000000,4259.487305,4843.589844,4197.436035,4187.179688,4163.077148,450.000000,3.000000,73.000000,,,,0.000000,4.000000,0.000000,4.000000,4.000000,4.000000,66.666664,,,,,,,,32.000000,0.000000,0.731887,0.158936,0.592529,-0.296631,0.963882,0.100099,-0.248539,5.935863,4.272315,14.919472
1618540017.594379,65.000000,0.000000,4266.666504,4855.897461,4208.205078,4194.358887,4164.102539,450.000000,3.000000,73.000000,,,,0.000000,4.000000,0.000000,4.000000,4.000000,4.000000,66.666664,,,,,,,,,,,,,,,,,,,
1618540017.602195,66.000000,0.000000,4264.102539,4927.692383,4225.128418,4195.897461,4162.563965,16229.000000,3.000000,73.000000,,,,0.000000,4.000000,0.000000,4.000000,4.000000,4.000000,66.666664,,,,,,,,33.000000,0.000000,0.731887,0.158936,0.592529,-0.296631,0.974136,0.092775,-0.246098,6.598399,6.476960,14.982724
1618540017.610112,67.000000,0.000000,4256.922852,4916.410156,4216.410156,4187.179688,4157.436035,450.000000,3.000000,73.000000,,,,0.000000,4.000000,0.000000,4.000000,4.000000,4.000000,66.666664,,,,,,,,,,,,,,,,,,,
1618540017.617928,68.000000,0.000000,4261.025879,4845.128418,4208.205078,4185.641113,4147.692383,0.000000,3.000000,73.000000,,,,0.000000,4.000000,0.000000,4.000000,4.000000,4.000000,66.666664,,,,,,,,34.000000,0.000000,0.731841,0.158691,0.592529,-0.296875,0.968277,0.092775,-0.260746,7.254498,4.573141,14.920020
1618540017.625745,69.000000,0.000000,4279.487305,4872.307617,4215.384766,4197.948730,4149.743652,450.000000,3.000000,73.000000,,,,0.000000,4.000000,0.000000,4.000000,4.000000,4.000000,66.666664,,,,,,,,,,,,,,,,,,,
1618540017.633561,70.000000,0.000000,4282.563965,4901.538574,4220.000000,4202.563965,4151.282227,16204.000000,3.000000,73.000000,,,,0.000000,4.000000,0.000000,4.000000,4.000000,4.000000,66.666664,,,,,,,,35.000000,0.000000,0.731841,0.158691,0.592529,-0.296875,0.971206,0.104982,-0.249027,7.785171,2.919519,14.923403
1618540017.641378,71.000000,0.000000,4271.794922,4873.846191,4220.512695,4200.512695,4146.153809,450.000000,3.000000,73.000000,,,,0.000000,4.000000,0.000000,4.000000,4.000000,4.000000,66.666664,,,,,,,,,,,,,,,,,,,
1618540017.649194,72.000000,0.000000,4268.205078,4917.948730,4221.025879,4196.922852,4145.128418,450.000000,3.000000,73.000000,,,,0.000000,4.000000,0.000000,4.000000,4.000000,4.000000,66.666664,,,,,,,,36.000000,0.000000,0.731841,0.158691,0.592529,-0.296875,0.968277,0.119142,-0.242679,8.322592,1.550891,14.926446
1618540017.657011,73.000000,0.000000,4266.153809,4928.717773,4209.743652,4194.871582,4134.358887,16097.000000,3.000000,73.000000,,,,0.000000,4.000000,0.000000,4.000000,4.000000,4.000000,66.666664,,,,,,,,,,,,,,,,,,,
1618540017.664827,74.000000,0.000000,4252.307617,4842.563965,4191.794922,4186.666504,4105.128418,450.000000,3.000000,73.000000,,,,0.000000,4.000000,0.000000,4.000000,4.000000,4.000000,66.666664,,,,,,,,37.000000,0.000000,0.731841,0.158691,0.592529,-0.296875,0.966812,0.107912,-0.251957,8.806271,0.199495,14.929186
1618540017.672644,75.000000,0.000000,4246.666504,4829.743652,4187.692383,4177.436035,4083.589844,16221.000000,3.000000,73.000000,,,,0.000000,4.000000,0.000000,4.000000,4.000000,4.000000,66.666664,,,,,,,,,,,,,,,,,,,
1618540017.680561,76.000000,0.000000,4258.974121,4946.666504,4189.743652,4178.974121,4088.718018,450.000000,3.000000,73.000000,,,,0.000000,4.000000,0.000000,4.000000,4.000000,4.000000,66.666664,,,,,,,,38.000000,0.000000,0.731841,0.158691,0.592529,-0.296875,0.973159,0.116213,-0.236820,5.233952,2.811421,14.991467
1618540017.688377,77.000000,0.000000,4267.179688,4990.769043,4192.307617,4188.717773,4093.333252,450.000000,3.000000,73.000000,,,,0.000000,4.000000,0.000000,4.000000,4.000000,4.000000,66.666664,,,,,,,,,,,,,,,,,,,
1618540017.696194,78.000000,0.000000,4270.769043,4927.179688,4195.897461,4195.384766,4097.948730,450.000000,3.000000,73.000000,,,,0.000000,4.000000,0.000000,4.000000,4.000000,4.000000,66.666664,,,,,,,,39.000000,0.000000,0.731894,0.158447,0.592529,-0.296875,0.974136,0.112306,-0.241703,7.880771,1.274156,14.987704
1618540017.704011,79.000000,0.000000,4277.436035,4873.333496,4198.974121,4190.769043,4106.666504,16221.000000,3.000000,73.000000,,,,0.000000,4.000000,0.000000,4.000000,4.000000,4.000000,66.666664,,,,,,,,,,,,,,,,,,,
1618540017.711828,80.000000,0.000000,4275.384766,4845.128418,4205.128418,4189.743652,4101.025879,450.000000,3.000000,73.000000,,,,0.000000,4.000000,0.000000,4.000000,4.000000,4.000000,66.666664,,,,,,,,40.000000,0.000000,0.731894,0.158447,0.592529,-0.296875,0.972183,0.110842,-0.240726,8.408632,-0.049567,14.984318
1618540017.719645,81.000000,0.000000,4267.179688,4899.487305,4206.666504,4196.410156,4094.358887,450.000000,3.000000,73.000000,,,,0.000000,4.000000,0.000000,4.000000,4.000000,4.000000,66.666664,,,,,,,,,,,,,,,,,,,
1618540017.727461,82.000000,0.000000,4271.282227,4943.589844,4203.589844,4195.897461,4094.871826,450.000000,3.000000,73.000000,,,,0.000000,4.000000,0.000000,4.000000,4.000000,4.000000,66.666664,,,,,,,,41.000000,0.000000,0.731894,0.158447,0.592529,-0.296875,0.972183,0.114260,-0.255375,8.943522,-1.181102,14.921455
1618540017.735278,83.000000,0.000000,4284.102539,4873.846191,4200.512695,4190.256348,4090.769287,16221.000000,3.000000,73.000000,,,,0.000000,4.000000,0.000000,4.000000,4.000000,4.000000,66.666664,,,,,,,,,,,,,,,,,,,
1618540017.743095,84.000000,0.000000,4283.077148,4879.487305,4202.051270,4189.230957,4080.512939,450.000000,3.000000,73.000000,,,,0.000000,4.000000,0.000000,4.000000,4.000000,4.000000,66.666664,,,,,,,,42.000000,0.000000,0.731894,0.158447,0.592529,-0.296875,0.971695,0.098146,-0.241703,9.365108,-2.498560,14.924694
1618540017.750912,85.000000,0.000000,4276.922852,4972.307617,4209.230957,4192.820313,4068.205078,450.000000,3.000000,73.000000,,,,0.000000,4.000000,0.000000,4.000000,4.000000,4.000000,66.666664,,,,,,,,,,,,,,,,,,,
1618540017.758827,86.000000,0.000000,4275.384766,4910.256348,4213.333496,4193.846191,4063.589844,450.000000,3.000000,73.000000,,,,0.000000,4.000000,0.000000,4.000000,4.000000,4.000000,66.666664,,,,,,,,43.000000,0.000000,0.731795,0.158447,0.592773,-0.296631,0.958022,0.097169,-0.250004,9.744535,0.263541,15.107055
1618540017.766643,87.000000,0.000000,4275.384766,4777.436035,4209.743652,4197.436035,4067.692383,16221.000000,3.000000,73.000000,,,,0.000000,4.000000,0.000000,4.000000,4.000000,4.000000,66.666664,,,,,,,,,,,,,,,,,,,
1618540017.774560,88.000000,0.000000,4275.384766,4826.153809,4209.743652,4208.717773,4070.256348,450.000000,3.000000,73.000000,,,,0.000000,4.000000,0.000000,4.000000,4.000000,4.000000,66.666664,0.937500,66.666664,4.000000,0.000000,4.000000,4.000000,4.000000,44.000000,0.000000,0.731795,0.158447,0.592773,-0.296631,0.968277,0.101564,-0.235355,6.198021,2.869063,15.031918
1618540017.782376,89.000000,0.000000,4271.794922,4934.358887,4213.333496,4212.820313,4068.718018,450.000000,3.000000,73.000000,,,,0.000000,4.000000,0.000000,4.000000,4.000000,4.000000,66.666664,,,,,,,,,,,,,,,,,,,
1618540017.790192,90.000000,0.000000,4267.692383,4939.487305,4201.538574,4195.384766,4066.666748,450.000000,3.000000,73.000000,,,,0.000000,4.000000,0.000000,4.000000,4.000000,4.000000,66.666664,,,,,,,,45.000000,0.000000,0.731795,0.158447,0.592773,-0.296631,0.976089,0.116701,-0.247562,3.006158,5.333663,15.203556
1618540017.798008,91.000000,0.000000,4266.666504,4893.846191,4189.743652,4185.641113,4064.102539,16221.000000,3.000000,73.000000,,,,0.000000,4.000000,0.000000,4.000000,4.000000,4.000000,66.666664,,,,,,,,,,,,,,,,,,,
1618540017.805825,92.000000,0.000000,4268.205078,4854.358887,4195.384766,4199.487305,4066.153809,450.000000,3.000000,73.000000,,,,0.000000,4.000000,0.000000,4.000000,4.000000,4.000000,66.666664,,,,,,,,46.000000,0.000000,0.731993,0.158447,0.592529,-0.296631,0.974136,0.103029,-0.242679,5.875757,3.544174,15.238400
1618540017.813641,93.000000,0.000000,4275.384766,4875.384766,4203.077148,4208.717773,4075.897461,450.000000,3.000000,73.000000,,,,0.000000,4.000000,0.000000,4.000000,4.000000,4.000000,66.666664,,,,,,,,,,,,,,,,,,,
1618540017.821558,94.000000,0.000000,4276.410156,4949.743652,4206.153809,4200.000000,4073.846191,450.000000,3.000000,73.000000,,,,0.000000,4.000000,0.000000,4.000000,4.000000,4.000000,66.666664,,,,,,,,47.000000,0.000000,0.731742,0.158691,0.592773,-0.296631,0.975601,0.106447,-0.231937,6.484488,1.933634,15.269760
1618540017.829375,95.000000,0.000000,4262.051270,4960.000000,4206.153809,4198.461426,4061.025635,16221.000000,3.000000,73.000000,,,,0.000000,4.000000,0.000000,4.000000,4.000000,4.000000,66.666664,,,,,,,,,,,,,,,,,,,
1618540017.837191,96.000000,0.000000,4249.230957,4906.153809,4202.563965,4208.717773,4071.281982,450.000000,3.000000,73.000000,,,,0.000000,4.000000,0.000000,4.000000,4.000000,4.000000,66.666664,,,,,,,,48.000000,0.000000,0.731841,0.158691,0.592773,-0.296387,0.958999,0.104982,-0.240726,9.125885,0.484148,15.297983
1618540017.845008,97.000000,0.000000,4254.358887,4901.025879,4205.128418,4213.846191,4095.384521,450.000000,3.000000,73.000000,,,,0.000000,4.000000,0.000000,4.000000,4.000000,4.000000,66.666664,,,,,,,,,,,,,,,,,,,
1618540017.852825,98.000000,0.000000,4258.974121,4914.358887,4208.717773,4215.897461,4106.153809,450.000000,3.000000,73.000000,,,,0.000000,4.000000,0.000000,4.000000,4.000000,4.000000,66.666664,,,,,,,,49.000000,0.000000,0.731841,0.158691,0.592773,-0.296387,0.975601,0.111818,-0.246586,11.323695,-0.760574,15.203753
1618540017.860642,99.000000,0.000000,4253.333496,4906.666504,4208.717773,4223.077148,4104.615234,16221.000000,3.000000,73.000000,,,,0.000000,4.000000,0.000000,4.000000,4.000000,4.000000,66.666664,,,,,,,,,,,,,,,,,,,
1618540017.868459,100.000000,0.000000,4249.230957,4898.974121,4214.871582,4231.282227,4108.205078,450.000000,3.000000,73.000000,,,,0.000000,4.000000,0.000000,4.000000,4.000000,4.000000,66.666664,,,,,,,,50.000000,0.000000,0.731894,0.158447,0.592773,-0.296387,0.978042,0.097169,-0.246586,11.626895,-1.880824,15.238578
1618540017.876275,101.000000,0.000000,4236.410156,4890.256348,4215.384766,4230.769043,4108.717773,450.000000,3.000000,73.000000,,,,0.000000,4.000000,0.000000,4.000000,4.000000,4.000000,66.666664,,,,,,,,,,,,,,,,,,,
1618540017.884092,102.000000,0.000000,4223.589844,4863.077148,4212.307617,4222.563965,4099.487305,450.000000,3.000000,73.000000,,,,0.000000,4.000000,0.000000,4.000000,4.000000,4.000000,66.666664,,,,,,,,51.000000,0.000000,0.731841,0.158691,0.592773,-0.296387,0.958999,0.104982,-0.240726,9.746421,-2.948864,15.210104
1618540017.891909,103.000000,0.000000,4232.820313,4852.307617,4218.974121,4224.615234,4103.077148,16221.000000,3.000000,73.000000,,,,0.000000,4.000000,0.000000,4.000000,4.000000,4.000000,66.666664,,,,,,,,,,,,,,,,,,,
1618540017.899726,104.000000,0.000000,4243.589844,4875.897461,4218.974121,4226.666504,4111.282227,450.000000,3.000000,73.000000,,,,0.000000,4.000000,0.000000,4.000000,4.000000,4.000000,66.666664,,,,,,,,52.000000,0.000000,0.731894,0.158447,0.592773,-0.296387,0.978042,0.097169,-0.246586,10.207347,-3.850285,15.244293
1618540017.907642,105.000000,0.000000,4243.077148,4910.256348,4213.333496,4220.000000,4113.846191,450.000000,3.000000,73.000000,,,,0.000000,4.000000,0.000000,4.000000,4.000000,4.000000,66.666664,,,,,,,,,,,,,,,,,,,
1618540017.915459,106.000000,0.000000,4246.666504,4904.102539,4221.538574,4222.563965,4117.436035,450.000000,3.000000,73.000000,,,,0.000000,4.000000,0.000000,4.000000,4.000000,4.000000,66.666664,,,,,,,,53.000000,0.000000,0.731894,0.158447,0.592773,-0.296387,0.978042,0.117678,-0.243656,8.468828,-4.721379,15.215248
1618540017.923275,107.000000,0.000000,4257.436035,4848.205078,4230.769043,4229.743652,4122.563965,16221.000000,3.000000,73.000000,,,,0.000000,4.000000,0.000000,4.000000,4.000000,4.000000,66.666664,,,,,,,,,,,,,,,,,,,
1618540017.931092,108.000000,0.000000,4262.563965,4905.128418,4232.307617,4231.794922,4131.794922,450.000000,3.000000,73.000000,,,,0.000000,4.000000,0.000000,4.000000,4.000000,4.000000,66.666664,,,,,,,,54.000000,0.000000,0.731894,0.158447,0.592773,-0.296387,0.972183,0.103517,-0.235843,10.851975,-5.385733,15.069477
1618540017.938908,109.000000,0.000000,4266.153809,4950.769043,4235.384766,4232.307617,4139.487305,450.000000,3.000000,73.000000,,,,0.000000,4.000000,0.000000,4.000000,4.000000,4.000000,66.666664,,,,,,,,,,,,,,,,,,,
1618540017.946725,110.000000,0.000000,4262.051270,4852.307617,4234.871582,4234.358887,4137.436035,450.000000,3.000000,73.000000,,,,0.000000,4.000000,0.000000,4.000000,4.000000,4.000000,66.666664,,,,,,,,55.000000,0.000000,0.731894,0.158447,0.592773,-0.296387,0.957046,0.116213,-0.231937,13.176253,-5.983652,14.998097
1618540017.954541,111.000000,0.000000,4238.974121,4814.358887,4229.743652,4227.179688,4118.461426,16221.000000,3.000000,73.000000,,,,0.000000,4.000000,0.000000,4.000000,4.000000,4.000000,66.666664,,,,,,,,,,,,,,,,,,,
1618540017.962358,112.000000,0.000000,4228.205078,4873.846191,4233.333496,4221.025879,4100.000000,450.000000,3.000000,73.000000,,,,0.000000,4.000000,0.000000,4.000000,4.000000,4.000000,66.666664,,,,,,,,56.000000,0.000000,0.731947,0.158203,0.592773,-0.296387,0.971695,0.104005,-0.249027,11.081028,-2.753411,14.874042
1618540017.970275,113.000000,0.000000,4229.743652,4940.000000,4233.846191,4224.615234,4096.922852,450.000000,3.000000,73.000000,,,,0.000000,4.000000,0.000000,4.000000,4.000000,4.000000,66.666664,,,,,,,,,,,,,,,,,,,
1618540017.978092,114.000000,0.000000,4224.615234,4920.512695,4225.128418,4221.538574,4096.922852,450.000000,3.000000,73.000000,,,,0.000000,4.000000,0.000000,4.000000,4.000000,4.000000,66.666664,,,,,,,,57.000000,0.000000,0.731947,0.158203,0.592773,-0.296387,0.966812,0.114260,-0.248051,9.434587,-3.734192,14.941836
1618540017.985908,115.000000,0.000000,4221.025879,4874.358887,4217.948730,4210.769043,4096.410156,16221.000000,3.000000,73.000000,,,,0.000000,4.000000,0.000000,4.000000,4.000000,4.000000,66.666664,,,,,,,,,,,,,,,,,,,
1618540017.993725,116.000000,0.000000,4226.666504,4894.358887,4216.410156,4206.153809,4103.077148,450.000000,3.000000,73.000000,,,,0.000000,4.000000,0.000000,4.000000,4.000000,4.000000,66.666664,,,,,,,,58.000000,0.000000,0.731947,0.158203,0.592773,-0.296387,0.973648,0.105959,-0.251469,7.892975,-4.557080,14.823406
1618540018.001542,117.000000,0.000000,4232.307617,4916.410156,4215.384766,4216.410156,4113.846191,450.000000,3.000000,73.000000,,,,0.000000,4.000000,0.000000,4.000000,4.000000,4.000000,66.666664,,,,,,,,,,,,,,,,,,,
1618540018.009359,118.000000,0.000000,4234.871582,4872.820313,4214.871582,4228.717773,4116.922852,450.000000,3.000000,73.000000,,,,0.000000,4.000000,0.000000,4.000000,4.000000,4.000000,66.666664,,,,,,,,59.000000,0.000000,0.732046,0.158203,0.592773,-0.296143,0.965347,0.103517,-0.246586,10.214076,-5.297679,14.776634
1618540018.017175,119.000000,0.000000,4239.487305,4869.743652,4218.974121,4227.179688,4122.051270,16221.000000,3.000000,73.000000,,,,0.000000,4.000000,0.000000,4.000000,4.000000,4.000000,66.666664,,,,,,,,,,,,,,,,,,,
1618540018.024992,120.000000,0.000000,4233.846191,4917.436035,4212.307617,4220.512695,4126.666504,450.000000,3.000000,73.000000,,,,0.000000,4.000000,0.000000,4.000000,4.000000,4.000000,66.666664,,,,,,,,60.000000,0.000000,0.732046,0.158203,0.592773,-0.296143,0.979019,0.120607,-0.246098,10.329161,-2.136035,14.674725
1618540018.032809,121.000000,0.000000,4220.512695,4890.256348,4192.307617,4215.384766,4118.461426,450.000000,3.000000,73.000000,,,,0.000000,4.000000,0.000000,4.000000,4.000000,4.000000,66.666664,,,,,,,,,,,,,,,,,,,
1618540018.040726,122.000000,0.000000,4216.410156,4896.410156,4184.615234,4211.282227,4107.179688,450.000000,3.000000,73.000000,,,,0.000000,4.000000,0.000000,4.000000,4.000000,4.000000,66.666664,,,,,,,,61.000000,0.000000,0.732046,0.158203,0.592773,-0.296143,0.969741,0.113771,-0.245609,12.466459,-3.058924,14.583006
1618540018.048543,123.000000,0.000000,4222.563965,4955.897461,4193.846191,4209.230957,4102.563965,16221.000000,3.000000,73.000000,,,,0.000000,4.000000,0.000000,4.000000,4.000000,4.000000,66.666664,,,,,,,,,,,,,,,,,,,
1618540018.056359,124.000000,0.000000,4231.794922,4931.794922,4202.051270,4216.410156,4118.461426,450.000000,3.000000,73.000000,,,,0.000000,4.000000,0.000000,4.000000,4.000000,4.000000,66.666664,,,,,,,,62.000000,0.000000,0.731993,0.158447,0.592773,-0.296143,0.970230,0.098146,-0.243168,8.707568,-0.061340,14.560274
1618540018.064176,125.000000,0.000000,4238.461426,4901.538574,4202.051270,4220.000000,4144.102539,450.000000,3.000000,73.000000,,,,0.000000,4.000000,0.000000,4.000000,4.000000,4.000000,66.666664,,,,,,,,,,,,,,,,,,,
1618540018.071993,126.000000,0.000000,4240.000000,4905.641113,4203.589844,4209.743652,4154.871582,450.000000,3.000000,73.000000,,,,0.000000,4.000000,0.000000,4.000000,4.000000,4.000000,66.666664,,,,,,,,63.000000,0.000000,0.731993,0.158447,0.592773,-0.296143,0.978042,0.108400,-0.241215,9.212564,-1.371144,14.539815
1618540018.079810,127.000000,0.000000,4237.436035,4861.538574,4207.179688,4208.205078,4153.333496,238.000000,3.000000,73.000000,,,,0.000000,4.000000,0.000000,4.000000,4.000000,4.000000,66.666664,,,,,,,,,,,,,,,,,,,
1618540018.087627,0.000000,0.000000,4237.436035,4862.563965,4206.153809,4222.051270,4157.948730,450.000000,3.000000,73.000000,,,,0.000000,4.000000,0.000000,4.000000,4.000000,4.000000,66.666664,,,,,,,,0.000000,0.000000,0.732046,0.158203,0.592773,-0.296143,0.969741,0.111330,-0.247562,7.693154,1.397846,14.641033
1618540018.095443,1.000000,0.000000,4245.128418,4917.436035,4202.051270,4223.077148,4168.205078,450.000000,3.000000,73.000000,,,,0.000000,4.000000,0.000000,4.000000,4.000000,4.000000,66.666664,,,,,,,,,,,,,,,,,,,
1618540018.103260,2.000000,0.000000,4247.179688,4921.025879,4197.948730,4208.717773,4173.846191,16228.000000,3.000000,73.000000,,,,0.000000,4.000000,0.000000,4.000000,4.000000,4.000000,66.666664,,,,,,,,1.000000,0.000000,0.732046,0.158203,0.592773,-0.296143,0.965347,0.115724,-0.250492,6.385500,0.001939,14.612498
1618540018.111077,3.000000,0.000000,4242.563965,4891.794922,4190.769043,4204.615234,4174.871582,450.000000,3.000000,73.000000,,,,0.000000,4.000000,0.000000,4.000000,4.000000,4.000000,66.666664,,,,,,,,,,,,,,,,,,,
1618540018.118894,4.000000,0.000000,4237.436035,4849.230957,4187.692383,4207.179688,4173.846191,0.000000,3.000000,73.000000,,,,0.000000,4.000000,0.000000,4.000000,4.000000,4.000000,66.666664,,,,,,,,2.000000,0.000000,0.732046,0.158203,0.592773,-0.296143,0.969253,0.101076,-0.239261,3.115074,-1.194562,14.706449
1618540018.126810,5.000000,0.000000,4232.820313,4847.179688,4188.205078,4207.179688,4175.897461,450.000000,3.000000,73.000000,,,,0.000000,4.000000,0.000000,4.000000,4.000000,4.000000,66.666664,,,,,,,,,,,,,,,,,,,
1618540018.134627,6.000000,0.000000,4234.358887,4916.410156,4188.205078,4208.205078,4184.102539,16204.000000,3.000000,73.000000,,,,0.000000,4.000000,0.000000,4.000000,4.000000,4.000000,66.666664,,,,,,,,3.000000,0.000000,0.732046,0.158203,0.592773,-0.296143,0.982925,0.105959,-0.247562,0.231506,1.496955,14.791003
1618540018.142443,7.000000,0.000000,4244.615234,4953.846191,4195.384766,4213.846191,4194.358887,450.000000,3.000000,73.000000,,,,0.000000,4.000000,0.000000,4.000000,4.000000,4.000000,66.666664,,,,,,,,,,,,,,,,,,,
1618540018.150260,8.000000,0.000000,4250.256348,4895.897461,4200.000000,4219.487305,4201.025879,450.000000,3.000000,73.000000,,,,0.000000,4.000000,0.000000,4.000000,4.000000,4.000000,66.666664,,,,,,,,4.000000,0.000000,0.732046,0.158203,0.592773,-0.296143,0.961440,0.107912,-0.230961,3.378570,0.150952,14.807287
1618540018.158076,9.000000,0.000000,4242.051270,4881.538574,4189.230957,4209.230957,4196.922852,16093.000000,3.000000,73.000000,,,,0.000000,4.000000,0.000000,4.000000,4.000000,4.000000,66.666664,,,,,,,,,,,,,,,,,,,
1618540018.165893,10.000000,0.000000,4234.358887,4896.410156,4179.487305,4200.512695,4193.333496,450.000000,3.000000,73.000000,,,,0.000000,4.000000,0.000000,4.000000,4.000000,4.000000,66.666664,,,,,,,,5.000000,0.000000,0.732046,0.158203,0.592773,-0.296143,0.960464,0.109377,-0.238285,0.408837,3.006994,14.881758
1618540018.173709,11.000000,0.000000,4231.282227,4843.077148,4184.102539,4212.820313,4198.974121,16225.000000,3.000000,73.000000,,,,0.000000,4.000000,0.000000,4.000000,4.000000,4.000000,66.666664,,,,,,,,,,,,,,,,,,,
1618540018.181526,12.000000,0.000000,4236.922852,4847.179688,4192.307617,4225.641113,4207.179688,450.000000,3.000000,73.000000,,,,0.000000,4.000000,0.000000,4.000000,4.000000,4.000000,66.666664,,,,,,,,6.000000,0.000000,0.731901,0.157959,0.593018,-0.296143,0.973159,0.111330,-0.258305,1.624076,1.390357,14.769336
1618540018.189442,13.000000,0.000000,4248.205078,4942.563965,4200.512695,4227.692383,4219.487305,450.000000,3.000000,73.000000,,,,0.000000,4.000000,0.000000,4.000000,4.000000,4.000000,66.666664,,,,,,,,,,,,,,,,,,,
1618540018.197259,14.000000,0.000000,4248.717773,4972.820313,4211.282227,4224.615234,4221.538574,450.000000,3.000000,73.000000,,,,0.000000,4.000000,0.000000,4.000000,4.000000,4.000000,66.666664,,,,,,,,7.000000,0.000000,0.731901,0.157959,0.593018,-0.296143,0.962905,0.104005,-0.247074,-0.990762,3.883197,14.907416
1618540018.205076,15.000000,0.000000,4241.538574,4914.871582,4212.307617,4215.384766,4208.717773,16225.000000,3.000000,73.000000,,,,0.000000,4.000000,0.000000,4.000000,4.000000,4.000000,66.666664,,,,,,,,,,,,,,,,,,,
1618540018.212892,16.000000,0.000000,4236.410156,4880.512695,4203.589844,4209.230957,4203.589844,0.000000,3.000000,73.000000,,,,0.000000,4.000000,0.000000,4.000000,4.000000,4.000000,66.666664,,,,,,,,8.000000,0.000000,0.731953,0.157715,0.593018,-0.296143,0.967788,0.111330,-0.250004,0.543883,6.306200,14.852243
1618540018.220709,17.000000,0.000000,4233.333496,4885.128418,4196.922852,4216.410156,4210.256348,0.000000,3.000000,73.000000,,,,0.000000,4.000000,0.000000,4.000000,4.000000,4.000000,66.666664,,,,,,,,,,,,,,,,,,,
1618540018.228525,18.000000,0.000000,4241.538574,4890.769043,4198.974121,4219.487305,4219.487305,0.000000,3.000000,73.000000,,,,0.000000,4.000000,0.000000,4.000000,4.000000,4.000000,66.666664,,,,,,,,9.000000,0.000000,0.731901,0.157959,0.593018,-0.296143,0.972671,0.095705,-0.238285,-0.168474,4.419457,14.922219
1618540018.236342,19.000000,0.000000,4256.922852,4891.282227,4204.102539,4216.922852,4225.128418,0.000000,3.000000,73.000000,,,,0.000000,4.000000,0.000000,4.000000,4.000000,4.000000,66.666664,,,,,,,,,,,,,,,,,,,
1618540018.244158,20.000000,0.000000,4247.692383,4906.666504,4197.948730,4223.077148,4224.102539,0.000000,3.000000,73.000000,,,,0.000000,4.000000,0.000000,4.000000,4.000000,4.000000,66.666664,,,,,,,,10.000000,0.000000,0.731901,0.157959,0.593018,-0.296143,0.971206,0.103517,-0.252445,1.104496,2.781204,15.045012
1618540018.251975,21.000000,0.000000,4227.692383,4918.974121,4192.307617,4225.641113,4212.307617,0.000000,3.000000,73.000000,,,,0.000000,4.000000,0.000000,4.000000,4.000000,4.000000,66.666664,,,,,,,,,,,,,,,,,,,
1618540018.259892,22.000000,1.000000,4229.287598,4918.233398,4191.624023,4226.153809,4212.364746,0.000000,3.000000,73.000000,,,,0.000000,4.000000,0.000000,4.000000,4.000000,4.000000,66.666664,,,,,,,,11.000000,1.000000,0.000000,0.157959,0.592969,-0.296143,0.970034,0.104591,0.000000,0.000000,0.000000,0.000000
1618540018.267708,23.000000,1.000000,4230.883301,4917.492676,4190.939941,4226.666504,4212.421875,0.000000,3.000000,73.000000,,,,0.000000,4.000000,0.000000,4.000000,4.000000,4.000000,66.666664,,,,,,,,,,,,,,,,,,,
1618540018.275525,24.000000,1.000000,4232.478516,4916.751953,4190.256348,4227.179688,4212.478516,0.000000,3.000000,73.000000,,,,0.000000,4.000000,0.000000,4.000000,4.000000,4.000000,66.666664,0.957031,66.666664,4.000000,0.000000,4.000000,4.000000,4.000000,12.000000,1.000000,0.000000,0.157959,0.592920,-0.296143,0.968862,0.105666,0.000000,0.000000,0.000000,0.000000
1618540018.283342,25.000000,1.000000,4234.074219,4916.011230,4189.572754,4227.692383,4212.535645,0.000000,3.000000,73.000000,,,,0.000000,4.000000,0.000000,4.000000,4.000000,4.000000,66.666664,,,,,,,,,,,,,,,,,,,
1618540018.291159,26.000000,1.000000,4235.669434,4915.270508,4188.888672,4228.205078,4212.592773,0.000000,3.000000,73.000000,,,,0.000000,4.000000,0.000000,4.000000,4.000000,4.000000,66.666664,,,,,,,,13.000000,1.000000,0.000000,0.157959,0.592871,-0.296143,0.967691,0.106740,0.000000,0.000000,0.000000,0.000000
1618540018.298976,27.000000,1.000000,4237.265137,4914.529785,4188.205078,4228.717773,4212.649414,0.000000,3.000000,73.000000,,,,0.000000,4.000000,0.000000,4.000000,4.000000,4.000000,66.666664,,,,,,,,,,,,,,,,,,,
1618540018.306792,28.000000,1.000000,4238.860352,4913.789063,4187.521484,4229.230957,4212.706543,0.000000,3.000000,73.000000,,,,0.000000,4.000000,0.000000,4.000000,4.000000,4.000000,66.666664,,,,,,,,14.000000,1.000000,0.000000,0.157959,0.592822,-0.296143,0.966519,0.107814,0.000000,0.000000,0.000000,0.000000
1618540018.314609,29.000000,1.000000,4240.456055,4913.048340,4186.837402,4229.743652,4212.763672,0.000000,3.000000,73.000000,,,,0.000000,4.000000,0.000000,4.000000,4.000000,4.000000,66.666664,,,,,,,,,,,,,,,,,,,
1618540018.322426,30.000000,0.000000,4242.051270,4912.307617,4186.153809,4230.256348,4212.820313,0.000000,3.000000,73.000000,,,,0.000000,4.000000,0.000000,4.000000,4.000000,4.000000,66.666664,,,,,,,,15.000000,0.000000,0.732098,0.157959,0.592773,-0.296143,0.965347,0.108888,-0.256840,2.250169,5.134960,15.155525
1618540018.330243,31.000000,0.000000,4251.794922,4886.666504,4201.538574,4234.358887,4228.205078,0.000000,3.000000,73.000000,,,,0.000000,4.000000,0.000000,4.000000,4.000000,4.000000,66.666664,,,,,,,,,,,,,,,,,,,
1618540018.338059,32.000000,0.000000,4249.743652,4847.179688,4207.179688,4233.333496,4237.948730,0.000000,3.000000,73.000000,,,,0.000000,4.000000,0.000000,4.000000,4.000000,4.000000,66.666664,,,,,,,,16.000000,0.000000,0.732197,0.157959,0.592773,-0.295898,0.969741,0.103517,-0.245121,3.281275,7.193524,15.135357
1618540018.345876,33.000000,0.000000,4240.000000,4892.307617,4200.000000,4232.820313,4229.230957,0.000000,3.000000,73.000000,,,,0.000000,4.000000,0.000000,4.000000,4.000000,4.000000,66.666664,,,,,,,,,,,,,,,,,,,
1618540018.353693,34.000000,0.000000,4237.948730,4927.692383,4190.769043,4233.333496,4224.615234,0.000000,3.000000,73.000000,,,,0.000000,4.000000,0.000000,4.000000,4.000000,4.000000,66.666664,,,,,,,,17.000000,0.000000,0.731901,0.157959,0.593018,-0.296143,0.973159,0.108400,-0.244144,2.295178,9.225678,15.117206
1618540018.361510,35.000000,0.000000,4246.153809,4888.717773,4190.256348,4229.743652,4234.871582,0.000000,3.000000,73.000000,,,,0.000000,4.000000,0.000000,4.000000,4.000000,4.000000,66.666664,,,,,,,,,,,,,,,,,,,
1618540018.369327,36.000000,0.000000,4251.794922,4877.948730,4190.769043,4225.641113,4244.615234,0.000000,3.000000,73.000000,,,,0.000000,4.000000,0.000000,4.000000,4.000000,4.000000,66.666664,,,,,,,,18.000000,0.000000,0.732197,0.157959,0.592773,-0.295898,0.969741,0.103517,-0.245121,3.321783,10.875172,15.100869
1618540018.377143,37.000000,0.000000,4249.743652,4880.512695,4180.000000,4223.077148,4236.922852,0.000000,3.000000,73.000000,,,,0.000000,4.000000,0.000000,4.000000,4.000000,4.000000,66.666664,,,,,,,,,,,,,,,,,,,
1618540018.384859,38.000000,0.000000,4235.384766,4861.025879,4163.589844,4211.282227,4221.538574,0.000000,3.000000,73.000000,,,,0.000000,4.000000,0.000000,4.000000,4.000000,4.000000,66.666664,,,,,,,,19.000000,0.000000,0.732197,0.157959,0.592773,-0.295898,0.961929,0.121096,-0.237797,6.159819,8.591348,15.086166
1618540018.392675,39.000000,0.000000,4215.897461,4837.436035,4153.846191,4195.897461,4205.641113,0.000000,3.000000,73.000000,,,,0.000000,4.000000,0.000000,4.000000,4.000000,4.000000,66.666664,,,,,,,,,,,,,,,,,,,
1618540018.400491,40.000000,0.000000,4215.897461,4866.153809,4158.974121,4205.128418,4204.102539,0.000000,3.000000,73.000000,,,,0.000000,4.000000,0.000000,4.000000,4.000000,4.000000,66.666664,,,,,,,,20.000000,0.000000,0.732197,0.157959,0.592773,-0.295898,0.958999,0.096193,-0.246098,3.091407,10.364089,15.072934
1618540018.408307,41.000000,0.000000,4225.641113,4930.256348,4166.153809,4223.589844,4213.846191,0.000000,3.000000,73.000000,,,,0.000000,4.000000,0.000000,4.000000,4.000000,4.000000,66.666664,,,,,,,,,,,,,,,,,,,
1618540018.416123,42.000000,0.000000,4220.512695,4916.410156,4163.589844,4221.538574,4212.307617,0.000000,3.000000,73.000000,,,,0.000000,4.000000,0.000000,4.000000,4.000000,4.000000,66.666664,,,,,,,,21.000000,0.000000,0.732197,0.157959,0.592773,-0.295898,0.964858,0.104982,-0.241703,0.329837,12.019371,15.180655
1618540018.423939,43.000000,0.000000,4217.948730,4906.153809,4161.025879,4213.846191,4206.153809,0.000000,3.000000,73.000000,,,,0.000000,4.000000,0.000000,4.000000,4.000000,4.000000,66.666664,,,,,,,,,,,,,,,,,,,
1618540018.431754,44.000000,0.000000,4232.820313,4979.487305,4162.051270,4216.922852,4218.461426,0.000000,3.000000,73.000000,,,,0.000000,4.000000,0.000000,4.000000,4.000000,4.000000,66.666664,,,,,,,,22.000000,0.000000,0.732197,0.157959,0.592773,-0.295898,0.956558,0.108888,-0.242679,3.646513,9.800573,15.098159
1618540018.439570,45.000000,0.000000,4241.538574,4914.358887,4166.666504,4218.974121,4235.384766,0.000000,3.000000,73.000000,,,,0.000000,4.000000,0.000000,4.000000,4.000000,4.000000,66.666664,,,,,,,,,,,,,,,,,,,
1618540018.447386,46.000000,0.000000,4241.025879,4747.179688,4173.846191,4214.358887,4234.871582,0.000000,3.000000,73.000000,,,,0.000000,4.000000,0.000000,4.000000,4.000000,4.000000,66.666664,,,,,,,,23.000000,0.000000,0.732197,0.157959,0.592773,-0.295898,0.978531,0.098634,-0.248539,0.829432,11.452392,15.083727
1618540018.455102,47.000000,0.000000,4241.538574,4790.769043,4180.000000,4215.384766,4229.230957,0.000000,3.000000,73.000000,,,,0.000000,4.000000,0.000000,4.000000,4.000000,4.000000,66.666664,,,,,,,,,,,,,,,,,,,
1618540018.462918,48.000000,0.000000,4241.025879,4934.871582,4180.000000,4222.563965,4235.897461,0.000000,3.000000,73.000000,,,,0.000000,4.000000,0.000000,4.000000,4.000000,4.000000,66.666664,,,,,,,,24.000000,0.000000,0.732395,0.157959,0.592529,-0.295898,0.978042,0.104982,-0.250980,2.002612,9.110846,14.891293
1618540018.470734,49.000000,0.000000,4240.512695,4938.974121,4176.410156,4222.563965,4246.666504,0.000000,3.000000,73.000000,,,,0.000000,4.000000,0.000000,4.000000,4.000000,4.000000,66.666664,,,,,,,,,,,,,,,,,,,
1618540018.478550,50.000000,0.000000,4244.102539,4894.358887,4170.769043,4215.897461,4248.205078,0.000000,3.000000,73.000000,,,,0.000000,4.000000,0.000000,4.000000,4.000000,4.000000,66.666664,,,,,,,,25.000000,0.000000,0.732296,0.157959,0.592529,-0.296143,0.966323,0.103517,-0.249027,3.118289,7.003453,14.837731
1618540018.486367,51.000000,0.000000,4242.563965,4880.512695,4161.538574,4215.897461,4242.563965,0.000000,3.000000,73.000000,,,,0.000000,4.000000,0.000000,4.000000,4.000000,4.000000,66.666664,,,,,,,,,,,,,,,,,,,
1618540018.494183,52.000000,0.000000,4233.333496,4882.051270,4154.871582,4219.487305,4236.922852,0.000000,3.000000,73.000000,,,,0.000000,4.000000,0.000000,4.000000,4.000000,4.000000,66.666664,,,,,,,,26.000000,0.000000,0.732098,0.157959,0.592773,-0.296143,0.971206,0.104982,-0.243656,4.182213,8.815353,14.849342
1618540018.501999,53.000000,0.000000,4230.769043,4942.051270,4155.384766,4223.077148,4240.512695,0.000000,3.000000,73.000000,,,,0.000000,4.000000,0.000000,4.000000,4.000000,4.000000,66.666664,,,,,,,,,,,,,,,,,,,
1618540018.509815,54.000000,0.000000,4238.461426,4953.333496,4165.641113,4229.230957,4248.717773,0.000000,3.000000,73.000000,,,,0.000000,4.000000,0.000000,4.000000,4.000000,4.000000,66.666664,,,,,,,,27.000000,0.000000,0.732098,0.157959,0.592773,-0.296143,0.982925,0.113283,-0.244144,1.311562,10.565694,14.859793
1618540018.517631,55.000000,0.000000,4241.538574,4883.077148,4171.282227,4235.384766,4251.794922,0.000000,3.000000,73.000000,,,,0.000000,4.000000,0.000000,4.000000,4.000000,4.000000,66.666664,,,,,,,,,,,,,,,,,,,
1618540018.525347,56.000000,0.000000,4236.922852,4886.666504,4169.743652,4233.846191,4251.794922,0.000000,3.000000,73.000000,,,,0.000000,4.000000,0.000000,4.000000,4.000000,4.000000,66.666664,,,,,,,,28.000000,0.000000,0.732151,0.157715,0.592773,-0.296143,0.964858,0.104982,-0.243656,2.496344,12.200816,14.749567
1618540018.533163,57.000000,0.000000,4237.436035,4918.974121,4171.794922,4228.717773,4252.307617,0.000000,3.000000,73.000000,,,,0.000000,4.000000,0.000000,4.000000,4.000000,4.000000,66.666664,,,,,,,,,,,,,,,,,,,
1618540018.540979,58.000000,0.000000,4241.025879,4889.743652,4174.358887,4222.563965,4255.384766,0.000000,3.000000,73.000000,,,,0.000000,4.000000,0.000000,4.000000,4.000000,4.000000,66.666664,,,,,,,,29.000000,0.000000,0.732151,0.157715,0.592773,-0.296143,0.974136,0.103517,-0.242679,5.476739,9.844243,14.710179
1618540018.548795,59.000000,0.000000,4242.563965,4889.743652,4173.846191,4214.358887,4259.487305,0.000000,3.000000,73.000000,,,,0.000000,4.000000,0.000000,4.000000,4.000000,4.000000,66.666664,,,,,,,,,,,,,,,,,,,
1618540018.556611,60.000000,0.000000,4243.589844,4958.974121,4170.769043,4205.128418,4260.512695,0.000000,3.000000,73.000000,,,,0.000000,4.000000,0.000000,4.000000,4.000000,4.000000,66.666664,,,,,,,,30.000000,0.000000,0.732151,0.157715,0.592773,-0.296143,0.969253,0.109865,-0.247074,4.211281,7.543880,14.794360
1618540018.564427,61.000000,0.000000,4235.384766,4944.102539,4164.102539,4197.948730,4252.307617,0.000000,3.000000,73.000000,,,,0.000000,4.000000,0.000000,4.000000,4.000000,4.000000,66.666664,,,,,,,,,,,,,,,,,,,
1618540018.572244,62.000000,0.000000,4225.641113,4876.922852,4152.820313,4191.794922,4241.538574,0.000000,3.000000,73.000000,,,,0.000000,4.000000,0.000000,4.000000,4.000000,4.000000,66.666664,,,,,,,,31.000000,0.000000,0.732250,0.157715,0.592773,-0.295898,0.976089,0.102052,-0.247562,7.139813,9.301738,14.750493
1618540018.580060,63.000000,0.000000,4228.717773,4888.205078,4149.743652,4187.179688,4234.358887,0.000000,3.000000,73.000000,,,,0.000000,4.000000,0.000000,4.000000,4.000000,4.000000,66.666664,,,,,,,,,,,,,,,,,,,
1618540018.587876,64.000000,0.000000,4241.025879,4904.102539,4155.384766,4193.333496,4241.025879,450.000000,3.000000,73.000000,,,,0.000000,4.000000,0.000000,4.000000,4.000000,4.000000,66.666664,,,,,,,,32.000000,0.000000,0.732250,0.157715,0.592773,-0.295898,0.968277,0.104494,-0.239750,7.801585,7.235072,14.770828
1618540018.595592,65.000000,0.000000,4247.692383,4899.487305,4163.077148,4203.077148,4254.871582,450.000000,3.000000,73.000000,,,,0.000000,4.000000,0.000000,4.000000,4.000000,4.000000,66.666664,,,,,,,,,,,,,,,,,,,
1618540018.603408,66.000000,0.000000,4253.333496,4927.179688,4173.846191,4197.436035,4256.922852,16231.000000,3.000000,73.000000,,,,0.000000,4.000000,0.000000,4.000000,4.000000,4.000000,66.666664,,,,,,,,33.000000,0.000000,0.732250,0.157715,0.592773,-0.295898,0.958511,0.101564,-0.236820,8.576626,5.255442,14.669498
1618540018.611224,67.000000,0.000000,4263.077148,4958.461426,4179.487305,4198.974121,4250.256348,450.000000,3.000000,73.000000,,,,0.000000,4.000000,0.000000,4.000000,4.000000,4.000000,66.666664,,,,,,,,,,,,,,,,,,,
1618540018.619040,68.000000,0.000000,4268.717773,4909.230957,4178.974121,4218.461426,4252.307617,0.000000,3.000000,73.000000,,,,0.000000,4.000000,0.000000,4.000000,4.000000,4.000000,66.666664,,,,,,,,34.000000,0.000000,0.732250,0.157715,0.592773,-0.295898,0.962417,0.103517,-0.236820,5.266533,7.481405,14.638118
1618540018.626856,69.000000,0.000000,4274.871582,4842.051270,4186.153809,4226.153809,4258.461426,450.000000,3.000000,73.000000,,,,0.000000,4.000000,0.000000,4.000000,4.000000,4.000000,66.666664,,,,,,,,,,,,,,,,,,,
1618540018.634672,70.000000,0.000000,4283.589844,4876.410156,4195.897461,4216.922852,4257.948730,16208.000000,3.000000,73.000000,,,,0.000000,4.000000,0.000000,4.000000,4.000000,4.000000,66.666664,,,,,,,,35.000000,0.000000,0.732052,0.157715,0.593018,-0.295898,0.973648,0.086427,-0.246586,7.969910,5.716403,14.789321
1618540018.642488,71.000000,0.000000,4283.077148,4912.307617,4196.410156,4215.384766,4251.282227,450.000000,3.000000,73.000000,,,,0.000000,4.000000,0.000000,4.000000,4.000000,4.000000,66.666664,,,,,,,,,,,,,,,,,,,
1618540018.650304,72.000000,0.000000,4274.871582,4883.077148,4190.769043,4215.897461,4244.102539,450.000000,3.000000,73.000000,,,,0.000000,4.000000,0.000000,4.000000,4.000000,4.000000,66.666664,,,,,,,,36.000000,0.000000,0.732105,0.157471,0.593018,-0.295898,0.954116,0.103029,-0.249027,4.780304,7.836454,14.865588
1618540018.658120,73.000000,0.000000,4269.230957,4891.794922,4187.179688,4206.153809,4234.871582,16096.000000,3.000000,73.000000,,,,0.000000,4.000000,0.000000,4.000000,4.000000,4.000000,66.666664,,,,,,,,,,,,,,,,,,,
1618540018.665937,74.000000,0.000000,4266.153809,4916.922852,4181.538574,4201.025879,4223.077148,450.000000,3.000000,73.000000,,,,0.000000,4.000000,0.000000,4.000000,4.000000,4.000000,66.666664,,,,,,,,37.000000,0.000000,0.732006,0.157471,0.593018,-0.296143,0.974136,0.100587,-0.247074,7.412673,5.916317,14.694967
1618540018.673652,75.000000,0.000000,4265.128418,4868.205078,4182.563965,4204.102539,4225.128418,16220.000000,3.000000,73.000000,,,,0.000000,4.000000,0.000000,4.000000,4.000000,4.000000,66.666664,,,,,,,,,,,,,,,,,,,
1618540018.681468,76.000000,0.000000,4269.230957,4875.897461,4198.461426,4214.358887,4234.358887,450.000000,3.000000,73.000000,,,,0.000000,4.000000,0.000000,4.000000,4.000000,4.000000,66.666664,,,,,,,,38.000000,0.000000,0.732006,0.157471,0.593018,-0.296143,0.967788,0.119142,-0.245121,6.133067,4.128378,14.720855
1618540018.689284,77.000000,0.000000,4268.205078,4963.077148,4215.897461,4228.717773,4236.410156,450.000000,3.000000,73.000000,,,,0.000000,4.000000,0.000000,4.000000,4.000000,4.000000,66.666664,,,,,,,,,,,,,,,,,,,
1618540018.697100,78.000000,0.000000,4275.897461,4939.487305,4227.692383,4229.743652,4244.102539,450.000000,3.000000,73.000000,,,,0.000000,4.000000,0.000000,4.000000,4.000000,4.000000,66.666664,,,,,,,,39.000000,0.000000,0.732006,0.157471,0.593018,-0.296143,0.976577,0.109865,-0.241703,8.749790,2.519233,14.624523
1618540018.704916,79.000000,0.000000,4300.000000,4849.230957,4228.717773,4225.641113,4258.974121,16220.000000,3.000000,73.000000,,,,0.000000,4.000000,0.000000,4.000000,4.000000,4.000000,66.666664,,,,,,,,,,,,,,,,,,,
1618540018.712732,80.000000,0.000000,4314.358887,4874.871582,4222.051270,4226.666504,4266.153809,450.000000,3.000000,73.000000,,,,0.000000,4.000000,0.000000,4.000000,4.000000,4.000000,66.666664,,,,,,,,40.000000,0.000000,0.732006,0.157471,0.593018,-0.296143,0.980972,0.107912,-0.242679,9.190749,1.011187,14.478008
1618540018.720547,81.000000,0.000000,4314.871582,4958.974121,4215.897461,4218.974121,4269.743652,450.000000,3.000000,73.000000,,,,0.000000,4.000000,0.000000,4.000000,4.000000,4.000000,66.666664,,,,,,,,,,,,,,,,,,,
1618540018.728363,82.000000,0.000000,4321.025879,4900.512695,4217.436035,4202.563965,4267.179688,450.000000,3.000000,73.000000,,,,0.000000,4.000000,0.000000,4.000000,4.000000,4.000000,66.666664,,,,,,,,41.000000,0.000000,0.732006,0.157471,0.593018,-0.296143,0.966323,0.116701,-0.248051,5.759429,3.541944,14.525592
1618540018.736179,83.000000,0.000000,4328.205078,4843.077148,4208.205078,4206.666504,4256.922852,16220.000000,3.000000,73.000000,,,,0.000000,4.000000,0.000000,4.000000,4.000000,4.000000,66.666664,,,,,,,,,,,,,,,,,,,
1618540018.743895,84.000000,0.000000,4321.025879,4964.102539,4190.256348,4215.384766,4249.230957,450.000000,3.000000,73.000000,,,,0.000000,4.000000,0.000000,4.000000,4.000000,4.000000,66.666664,,,,,,,,42.000000,0.000000,0.732006,0.157471,0.593018,-0.296143,0.984390,0.104005,-0.255375,8.473331,1.991442,14.568417
1618540018.751711,85.000000,0.000000,4318.974121,5007.179688,4202.563965,4199.487305,4238.974121,450.000000,3.000000,73.000000,,,,0.000000,4.000000,0.000000,4.000000,4.000000,4.000000,66.666664,,,,,,,,,,,,,,,,,,,
1618540018.759527,86.000000,0.000000,4334.871582,4874.358887,4228.205078,4196.922852,4237.948730,450.000000,3.000000,73.000000,,,,0.000000,4.000000,0.000000,4.000000,4.000000,4.000000,66.666664,,,,,,,,43.000000,0.000000,0.732157,0.157227,0.593018,-0.295898,0.969253,0.106447,-0.245609,8.941936,0.536175,14.427513
1618540018.767343,87.000000,0.000000,4347.179688,4827.179688,4231.282227,4221.025879,4262.563965,16220.000000,3.000000,73.000000,,,,0.000000,4.000000,0.000000,4.000000,4.000000,4.000000,66.666664,,,,,,,,,,,,,,,,,,,
1618540018.775158,88.000000,0.000000,4348.717773,4886.666504,4233.846191,4225.641113,4279.487305,450.000000,3.000000,73.000000,,,,0.000000,4.000000,0.000000,4.000000,4.000000,4.000000,66.666664,0.937500,66.666664,4.000000,0.000000,4.000000,4.000000,4.000000,44.000000,0.000000,0.732210,0.156982,0.593018,-0.295898,0.975113,0.112306,-0.239261,9.483312,-0.594119,14.539961
1618540018.782974,89.000000,0.000000,4361.538574,4911.282227,4247.692383,4213.846191,4280.000000,450.000000,3.000000,73.000000,,,,0.000000,4.000000,0.000000,4.000000,4.000000,4.000000,66.666664,,,,,,,,,,,,,,,,,,,
1618540018.790790,90.000000,0.000000,4374.871582,4919.487305,4241.025879,4223.077148,4289.230957,450.000000,3.000000,73.000000,,,,0.000000,4.000000,0.000000,4.000000,4.000000,4.000000,66.666664,,,,,,,,45.000000,0.000000,0.732210,0.156982,0.593018,-0.295898,0.967788,0.107912,-0.241215,7.936827,-1.790829,14.581349
1618540018.798606,91.000000,0.000000,4358.461426,4905.128418,4218.461426,4227.179688,4291.794922,16220.000000,3.000000,73.000000,,,,0.000000,4.000000,0.000000,4.000000,4.000000,4.000000,66.666664,,,,,,,,,,,,,,,,,,,
1618540018.806422,92.000000,0.000000,4341.025879,4825.128418,4220.512695,4207.692383,4272.307617,450.000000,3.000000,73.000000,,,,0.000000,4.000000,0.000000,4.000000,4.000000,4.000000,66.666664,,,,,,,,46.000000,0.000000,0.732111,0.156982,0.593018,-0.296143,0.972183,0.106935,-0.237308,4.750529,-2.867869,14.498968
1618540018.814137,93.000000,0.000000,4346.666504,4838.461426,4229.230957,4202.563965,4252.307617,450.000000,3.000000,73.000000,,,,0.000000,4.000000,0.000000,4.000000,4.000000,4.000000,66.666664,,,,,,,,,,,,,,,,,,,
1618540018.821952,94.000000,0.000000,4336.410156,4980.512695,4215.897461,4203.077148,4240.000000,450.000000,3.000000,73.000000,,,,0.000000,4.000000,0.000000,4.000000,4.000000,4.000000,66.666664,,,,,,,,47.000000,0.000000,0.732111,0.156982,0.593018,-0.296143,0.968277,0.108400,-0.249027,3.557692,-3.597944,14.544456
1618540018.829668,95.000000,0.000000,4307.179688,4981.538574,4209.230957,4189.230957,4214.358887,16220.000000,3.000000,73.000000,,,,0.000000,4.000000,0.000000,4.000000,4.000000,4.000000,66.666664,,,,,,,,,,,,,,,,,,,
1618540018.837484,96.000000,0.000000,4286.153809,4871.282227,4216.922852,4193.333496,4176.410156,450.000000,3.000000,73.000000,,,,0.000000,4.000000,0.000000,4.000000,4.000000,4.000000,66.666664,,,,,,,,48.000000,0.000000,0.732210,0.156982,0.593018,-0.295898,0.967788,0.107912,-0.241215,2.603769,-4.494272,14.585394
1618540018.845300,97.000000,0.000000,4267.692383,4886.153809,4211.794922,4204.615234,4144.102539,450.000000,3.000000,73.000000,,,,0.000000,4.000000,0.000000,4.000000,4.000000,4.000000,66.666664,,,,,,,,,,,,,,,,,,,
1618540018.853116,98.000000,0.000000,4245.641113,4923.589844,4203.077148,4200.512695,4126.153809,450.000000,3.000000,73.000000,,,,0.000000,4.000000,0.000000,4.000000,4.000000,4.000000,66.666664,,,,,,,,49.000000,0.000000,0.732111,0.156982,0.593018,-0.296143,0.968277,0.108400,-0.249027,1.625608,-5.061706,14.622238
1618540018.860931,99.000000,0.000000,4236.410156,4892.307617,4210.256348,4201.025879,4124.615234,16220.000000,3.000000,73.000000,,,,0.000000,4.000000,0.000000,4.000000,4.000000,4.000000,66.666664,,,,,,,,,,,,,,,,,,,
1618540018.868747,100.000000,0.000000,4243.589844,4875.897461,4217.948730,4204.102539,4129.743652,450.000000,3.000000,73.000000,,,,0.000000,4.000000,0.000000,4.000000,4.000000,4.000000,66.666664,,,,,,,,50.000000,0.000000,0.732210,0.156982,0.593018,-0.295898,0.965347,0.099611,-0.236820,2.838800,-1.923659,14.655399
1618540018.876563,101.000000,0.000000,4253.846191,4859.487305,4221.025879,4202.051270,4138.461426,450.000000,3.000000,73.000000,,,,0.000000,4.000000,0.000000,4.000000,4.000000,4.000000,66.666664,,,,,,,,,,,,,,,,,,,
1618540018.884379,102.000000,0.000000,4262.051270,4851.794922,4227.179688,4206.666504,4140.512695,450.000000,3.000000,73.000000,,,,0.000000,4.000000,0.000000,4.000000,4.000000,4.000000,66.666664,,,,,,,,51.000000,0.000000,0.732111,0.156982,0.593018,-0.296143,0.978042,0.102052,-0.264652,5.725135,-3.047231,14.565613
1618540018.892095,103.000000,0.000000,4257.436035,4909.743652,4224.102539,4200.512695,4133.846191,16220.000000,3.000000,73.000000,,,,0.000000,4.000000,0.000000,4.000000,4.000000,4.000000,66.666664,,,,,,,,,,,,,,,,,,,
1618540018.899911,104.000000,0.000000,4241.025879,4886.666504,4209.743652,4177.948730,4131.282227,450.000000,3.000000,73.000000,,,,0.000000,4.000000,0.000000,4.000000,4.000000,4.000000,66.666664,,,,,,,,52.000000,0.000000,0.732111,0.156982,0.593018,-0.296143,0.968765,0.107424,-0.246586,2.640376,-0.110632,14.544620
1618540018.907727,105.000000,0.000000,4235.384766,4839.487305,4201.025879,4178.461426,4131.794922,450.000000,3.000000,73.000000,,,,0.000000,4.000000,0.000000,4.000000,4.000000,4.000000,66.666664,,,,,,,,,,,,,,,,,,,
1618540018.915542,106.000000,0.000000,4246.666504,4928.205078,4205.641113,4198.461426,4138.461426,450.000000,3.000000,73.000000,,,,0.000000,4.000000,0.000000,4.000000,4.000000,4.000000,66.666664,,,,,,,,53.000000,0.000000,0.732111,0.156982,0.593018,-0.296143,0.970718,0.115236,-0.239261,3.692276,-1.236061,14.585542
1618540018.923358,107.000000,0.000000,4261.025879,4951.794922,4217.948730,4196.410156,4149.230957,16220.000000,3.000000,73.000000,,,,0.000000,4.000000,0.000000,4.000000,4.000000,4.000000,66.666664,,,,,,,,,,,,,,,,,,,
1618540018.931174,108.000000,0.000000,4275.897461,4886.153809,4222.051270,4191.794922,4160.512695,450.000000,3.000000,73.000000,,,,0.000000,4.000000,0.000000,4.000000,4.000000,4.000000,66.666664,,,,,,,,54.000000,0.000000,0.732111,0.156982,0.593018,-0.296143,0.969253,0.104982,-0.236820,0.810803,1.459606,14.682187
1618540018.938990,109.000000,0.000000,4301.538574,4882.563965,4214.871582,4205.128418,4185.128418,450.000000,3.000000,73.000000,,,,0.000000,4.000000,0.000000,4.000000,4.000000,4.000000,66.666664,,,,,,,,,,,,,,,,,,,
1618540018.946806,110.000000,0.000000,4333.333496,4881.538574,4211.282227,4209.230957,4238.461426,450.000000,3.000000,73.000000,,,,0.000000,4.000000,0.000000,4.000000,4.000000,4.000000,66.666664,,,,,,,,55.000000,0.000000,0.732163,0.156738,0.593018,-0.296143,0.965835,0.099611,-0.234867,-1.782522,3.825891,14.769168
1618540018.954622,111.000000,0.000000,4391.282227,4872.307617,4220.512695,4196.922852,4317.436035,16220.000000,3.000000,73.000000,,,,0.000000,4.000000,0.000000,4.000000,4.000000,4.000000,66.666664,,,,,,,,,,,,,,,,,,,
1618540018.962337,112.000000,0.000000,4481.538574,4945.641113,4236.922852,4194.358887,4408.717773,450.000000,3.000000,73.000000,,,,0.000000,4.000000,0.000000,4.000000,4.000000,4.000000,66.666664,,,,,,,,56.000000,0.000000,0.732163,0.156738,0.593018,-0.296143,0.967300,0.113771,-0.252445,-2.142608,2.187179,14.668005
1618540018.970153,113.000000,0.000000,4555.384766,5027.179688,4241.538574,4205.641113,4491.282227,450.000000,3.000000,73.000000,,,,0.000000,4.000000,0.000000,4.000000,4.000000,4.000000,66.666664,,,,,,,,,,,,,,,,,,,
1618540018.977969,114.000000,0.000000,4600.000000,4947.692383,4230.769043,4220.512695,4548.717773,450.000000,3.000000,73.000000,,,,0.000000,4.000000,0.000000,4.000000,4.000000,4.000000,66.666664,,,,,,,,57.000000,0.000000,0.732215,0.156494,0.593018,-0.296143,0.979995,0.101564,-0.232425,-0.552594,0.831969,14.576958
1618540018.985784,115.000000,0.000000,4641.538574,4861.538574,4230.769043,4229.230957,4591.794922,16220.000000,3.000000,73.000000,,,,0.000000,4.000000,0.000000,4.000000,4.000000,4.000000,66.666664,,,,,,,,,,,,,,,,,,,
1618540018.993600,116.000000,0.000000,4671.794922,4935.384766,4236.922852,4223.077148,4627.179688,450.000000,3.000000,73.000000,,,,0.000000,4.000000,0.000000,4.000000,4.000000,4.000000,66.666664,,,,,,,,58.000000,0.000000,0.732117,0.156494,0.593018,-0.296387,0.973648,0.115724,-0.251957,0.818603,-0.447535,14.853908
1618540019.001316,117.000000,0.000000,4687.179688,4967.692383,4233.333496,4221.538574,4643.077148,450.000000,3.000000,73.000000,,,,0.000000,4.000000,0.000000,4.000000,4.000000,4.000000,66.666664,,,,,,,,,,,,,,,,,,,
1618540019.009132,118.000000,0.000000,4695.897461,4876.410156,4231.794922,4218.974121,4632.307617,450.000000,3.000000,73.000000,,,,0.000000,4.000000,0.000000,4.000000,4.000000,4.000000,66.666664,,,,,,,,59.000000,0.000000,0.732169,0.156250,0.593018,-0.296387,0.974624,0.101076,-0.248539,-1.954948,2.229095,14.923717
1618540019.016948,119.000000,0.000000,4692.307617,4866.666504,4235.897461,4205.128418,4621.538574,16220.000000,3.000000,73.000000,,,,0.000000,4.000000,0.000000,4.000000,4.000000,4.000000,66.666664,,,,,,,,,,,,,,,,,,,
1618540019.024764,120.000000,0.000000,4692.307617,4894.358887,4225.641113,4206.153809,4626.153809,450.000000,3.000000,73.000000,,,,0.000000,4.000000,0.000000,4.000000,4.000000,4.000000,66.666664,,,,,,,,60.000000,0.000000,0.732169,0.156250,0.593018,-0.296387,0.971206,0.105959,-0.241703,-0.443516,0.809878,14.986545
1618540019.032580,121.000000,0.000000,4700.000000,4851.794922,4220.512695,4221.025879,4619.487305,450.000000,3.000000,73.000000,,,,0.000000,4.000000,0.000000,4.000000,4.000000,4.000000,66.666664,,,,,,,,,,,,,,,,,,,
1618540019.040396,122.000000,0.000000,4697.948730,4897.948730,4229.230957,4226.153809,4610.769043,450.000000,3.000000,73.000000,,,,0.000000,4.000000,0.000000,4.000000,4.000000,4.000000,66.666664,,,,,,,,61.000000,0.000000,0.732169,0.156250,0.593018,-0.296387,0.975113,0.109865,-0.241215,0.856959,-0.587048,14.983274
1618540019.048212,123.000000,0.000000,4706.666504,4951.282227,4221.538574,4231.282227,4636.410156,16220.000000,3.000000,73.000000,,,,0.000000,4.000000,0.000000,4.000000,4.000000,4.000000,66.666664,,,,,,,,,,,,,,,,,,,
1618540019.056028,124.000000,0.000000,4722.563965,4889.743652,4220.512695,4231.794922,4649.230957,450.000000,3.000000,73.000000,,,,0.000000,4.000000,0.000000,4.000000,4.000000,4.000000,66.666664,,,,,,,,62.000000,0.000000,0.732169,0.156250,0.593018,-0.296387,0.969741,0.101564,-0.245609,1.967570,-1.664835,14.980330
1618540019.063844,125.000000,0.000000,4714.871582,4926.666504,4227.692383,4219.487305,4622.563965,450.000000,3.000000,73.000000,,,,0.000000,4.000000,0.000000,4.000000,4.000000,4.000000,66.666664,,,,,,,,,,,,,,,,,,,
1618540019.071560,126.000000,0.000000,4706.666504,4978.974121,4210.769043,4220.512695,4617.436035,450.000000,3.000000,73.000000,,,,0.000000,4.000000,0.000000,4.000000,4.000000,4.000000,66.666664,,,,,,,,63.000000,0.000000,0.732169,0.156250,0.593018,-0.296387,0.962417,0.106935,-0.256840,3.086751,1.073709,14.917867
1618540019.079376,127.000000,0.000000,4711.282227,4858.461426,4203.589844,4224.615234,4626.666504,238.000000,3.000000,73.000000,,,,0.000000,4.000000,0.000000,4.000000,4.000000,4.000000,66.666664,,,,,,,,,,,,,,,,,,,
1618540019.087192,0.000000,0.000000,4701.538574,4844.615234,4215.384766,4204.615234,4612.307617,450.000000,3.000000,73.000000,,,,0.000000,4.000000,0.000000,4.000000,4.000000,4.000000,66.666664,,,,,,,,0.000000,0.000000,0.732070,0.156250,0.593018,-0.296631,0.969253,0.112795,-0.250980,4.094014,-0.229969,14.861649
1618540019.095008,1.000000,0.000000,4694.871582,4960.000000,4209.743652,4201.538574,4606.153809,450.000000,3.000000,73.000000,,,,0.000000,4.000000,0.000000,4.000000,4.000000,4.000000,66.666664,,,,,,,,,,,,,,,,,,,
1618540019.102824,2.000000,0.000000,4704.102539,4933.846191,4203.589844,4216.410156,4611.282227,16221.000000,3.000000,73.000000,,,,0.000000,4.000000,0.000000,4.000000,4.000000,4.000000,66.666664,,,,,,,,1.000000,0.000000,0.732070,0.156250,0.593018,-0.296631,0.980484,0.113771,-0.248051,5.000551,2.365088,14.811052
1618540019.110640,3.000000,0.000000,4698.461426,4880.000000,4210.769043,4208.717773,4600.000000,450.000000,3.000000,73.000000,,,,0.000000,4.000000,0.000000,4.000000,4.000000,4.000000,66.666664,,,,,,,,,,,,,,,,,,,
1618540019.118455,4.000000,0.000000,4692.307617,4903.589844,4204.102539,4202.051270,4587.179688,0.000000,3.000000,73.000000,,,,0.000000,4.000000,0.000000,4.000000,4.000000,4.000000,66.666664,,,,,,,,2.000000,0.000000,0.732070,0.156250,0.593018,-0.296631,0.976089,0.124025,-0.243168,5.876249,0.872457,14.765516
1618540019.126271,5.000000,0.000000,4701.025879,4880.000000,4198.461426,4207.179688,4579.487305,450.000000,3.000000,73.000000,,,,0.000000,4.000000,0.000000,4.000000,4.000000,4.000000,66.666664,,,,,,,,,,,,,,,,,,,
1618540019.133987,6.000000,0.000000,4691.794922,4867.179688,4197.948730,4192.307617,4566.153809,16201.000000,3.000000,73.000000,,,,0.000000,4.000000,0.000000,4.000000,4.000000,4.000000,66.666664,,,,,,,,3.000000,0.000000,0.732070,0.156250,0.593018,-0.296631,0.974136,0.110842,-0.245121,6.664378,-0.470911,14.724533
1618540019.141803,7.000000,0.000000,4677.948730,4940.512695,4182.563965,4179.487305,4564.102539,450.000000,3.000000,73.000000,,,,0.000000,4.000000,0.000000,4.000000,4.000000,4.000000,66.666664,,,,,,,,,,,,,,,,,,,
1618540019.149619,8.000000,0.000000,4700.000000,4970.256348,4180.000000,4194.871582,4574.871582,450.000000,3.000000,73.000000,,,,0.000000,4.000000,0.000000,4.000000,4.000000,4.000000,66.666664,,,,,,,,4.000000,0.000000,0.732070,0.156250,0.593018,-0.296631,0.964370,0.114748,-0.257816,7.254063,-1.679943,14.747464
1618540019.157435,9.000000,0.000000,4720.512695,4926.153809,4197.436035,4194.358887,4576.922852,16094.000000,3.000000,73.000000,,,,0.000000,4.000000,0.000000,4.000000,4.000000,4.000000,66.666664,,,,,,,,,,,,,,,,,,,
1618540019.165251,10.000000,0.000000,4707.692383,4855.897461,4196.410156,4176.922852,4571.282227,450.000000,3.000000,73.000000,,,,0.000000,4.000000,0.000000,4.000000,4.000000,4.000000,66.666664,,,,,,,,5.000000,0.000000,0.732122,0.156006,0.593018,-0.296631,0.974624,0.112795,-0.264164,7.844594,-2.648441,14.708286
1618540019.173066,11.000000,0.000000,4709.743652,4825.128418,4185.128418,4186.666504,4568.205078,16220.000000,3.000000,73.000000,,,,0.000000,4.000000,0.000000,4.000000,4.000000,4.000000,66.666664,,,,,,,,,,,,,,,,,,,
1618540019.180882,12.000000,0.000000,4717.948730,4908.717773,4189.230957,4197.436035,4560.512695,450.000000,3.000000,73.000000,,,,0.000000,4.000000,0.000000,4.000000,4.000000,4.000000,66.666664,,,,,,,,6.000000,0.000000,0.732221,0.156006,0.593018,-0.296387,0.983902,0.106447,-0.236820,8.256442,-3.639719,14.673026
1618540019.188698,13.000000,0.000000,4688.205078,4968.717773,4193.846191,4188.205078,4543.077148,450.000000,3.000000,73.000000,,,,0.000000,4.000000,0.000000,4.000000,4.000000,4.000000,66.666664,,,,,,,,,,,,,,,,,,,
1618540019.196414,14.000000,0.000000,4664.615234,4916.922852,4185.641113,4188.717773,4526.153809,450.000000,3.000000,73.000000,,,,0.000000,4.000000,0.000000,4.000000,4.000000,4.000000,66.666664,,,,,,,,7.000000,0.000000,0.732023,0.156006,0.593262,-0.296387,0.963394,0.109377,-0.251469,8.746736,-0.464425,14.760923
1618540019.204230,15.000000,0.000000,4674.358887,4872.820313,4188.205078,4193.846191,4513.333496,16220.000000,3.000000,73.000000,,,,0.000000,4.000000,0.000000,4.000000,4.000000,4.000000,66.666664,,,,,,,,,,,,,,,,,,,
1618540019.212046,16.000000,0.000000,4668.717773,4875.897461,4204.102539,4181.025879,4496.922852,0.000000,3.000000,73.000000,,,,0.000000,4.000000,0.000000,4.000000,4.000000,4.000000,66.666664,,,,,,,,8.000000,0.000000,0.732023,0.156006,0.593262,-0.296387,0.976089,0.101076,-0.247562,9.128185,-1.614290,14.780215
1618540019.219862,17.000000,0.000000,4651.794922,4894.358887,4206.153809,4173.846191,4486.153809,0.000000,3.000000,73.000000,,,,0.000000,4.000000,0.000000,4.000000,4.000000,4.000000,66.666664,,,,,,,,,,,,,,,,,,,
1618540019.227677,18.000000,0.000000,4655.384766,4941.538574,4187.692383,4184.615234,4483.077148,0.000000,3.000000,73.000000,,,,0.000000,4.000000,0.000000,4.000000,4.000000,4.000000,66.666664,,,,,,,,9.000000,0.000000,0.732122,0.156006,0.593262,-0.296143,0.961929,0.105959,-0.250492,9.531304,-2.649168,14.677947
1618540019.235493,19.000000,0.000000,4649.743652,4942.051270,4173.846191,4178.974121,4462.563965,0.000000,3.000000,73.000000,,,,0.000000,4.000000,0.000000,4.000000,4.000000,4.000000,66.666664,,,,,,,,,,,,,,,,,,,
1618540019.243309,20.000000,0.000000,4625.128418,4835.384766,4173.846191,4163.589844,4430.769043,0.000000,3.000000,73.000000,,,,0.000000,4.000000,0.000000,4.000000,4.000000,4.000000,66.666664,,,,,,,,10.000000,0.000000,0.732122,0.156006,0.593262,-0.296143,0.972671,0.116701,-0.244144,6.006114,0.247625,14.825168
1618540019.251125,21.000000,0.000000,4610.256348,4815.384766,4176.410156,4166.153809,4412.820313,0.000000,3.000000,73.000000,,,,0.000000,4.000000,0.000000,4.000000,4.000000,4.000000,66.666664,,,,,,,,,,,,,,,,,,,
1618540019.258841,22.000000,0.000000,4595.897461,4865.128418,4177.948730,4167.179688,4397.436035,0.000000,3.000000,73.000000,,,,0.000000,4.000000,0.000000,4.000000,4.000000,4.000000,66.666664,,,,,,,,11.000000,0.000000,0.732122,0.156006,0.593262,-0.296143,0.959976,0.112306,-0.240726,8.575716,-1.033260,14.778219
1618540019.266657,23.000000,0.000000,4567.179688,4810.256348,4178.974121,4149.743652,4375.897461,0.000000,3.000000,73.000000,,,,0.000000,4.000000,0.000000,4.000000,4.000000,4.000000,66.666664,,,,,,,,,,,,,,,,,,,
1618540019.274473,24.000000,0.000000,4546.153809,4827.692383,4181.538574,4145.641113,4366.666504,0.000000,3.000000,73.000000,,,,0.000000,4.000000,0.000000,4.000000,4.000000,4.000000,66.666664,0.968750,50.000000,3.000000,0.000000,4.000000,4.000000,3.000000,12.000000,0.000000,0.732122,0.156006,0.593262,-0.296143,0.962905,0.104494,-0.237308,11.007990,-2.126242,14.676150
1618540019.282289,25.000000,0.000000,4540.000000,4986.666504,4183.077148,4167.179688,4368.205078,0.000000,3.000000,73.000000,,,,0.000000,4.000000,0.000000,4.000000,4.000000,4.000000,66.666664,,,,,,,,,,,,,,,,,,,
1618540019.290105,26.000000,0.000000,4522.051270,5015.384766,4176.410156,4173.333496,4352.307617,0.000000,3.000000,73.000000,,,,0.000000,4.000000,0.000000,4.000000,4.000000,4.000000,66.666664,,,,,,,,13.000000,0.000000,0.732174,0.155762,0.593262,-0.296143,0.978531,0.107912,-0.246098,7.335130,0.718259,14.823550
1618540019.297921,27.000000,0.000000,4478.974121,4877.436035,4161.025879,4158.461426,4314.871582,0.000000,3.000000,73.000000,,,,0.000000,4.000000,0.000000,4.000000,4.000000,4.000000,66.666664,,,,,,,,,,,,,,,,,,,
1618540019.305738,28.000000,0.000000,4427.692383,4816.922852,4141.538574,4156.410156,4270.256348,0.000000,3.000000,73.000000,,,,0.000000,4.000000,0.000000,4.000000,4.000000,4.000000,66.666664,,,,,,,,14.000000,0.000000,0.732122,0.156006,0.593262,-0.296143,0.963882,0.108400,-0.239261,7.857740,3.397939,14.956210
1618540019.313554,29.000000,0.000000,4387.179688,4876.410156,4141.025879,4164.615234,4231.282227,0.000000,3.000000,73.000000,,,,0.000000,4.000000,0.000000,4.000000,4.000000,4.000000,66.666664,,,,,,,,,,,,,,,,,,,
1618540019.321370,30.000000,0.000000,4356.922852,4891.282227,4162.563965,4149.743652,4204.615234,0.000000,3.000000,73.000000,,,,0.000000,4.000000,0.000000,4.000000,4.000000,4.000000,66.666664,,,,,,,,15.000000,0.000000,0.732122,0.156006,0.593262,-0.296143,0.962905,0.104494,-0.237308,10.242180,1.802023,14.836343
1618540019.329086,31.000000,0.000000,4338.461426,4840.512695,4168.205078,4138.974121,4188.205078,0.000000,3.000000,73.000000,,,,0.000000,4.000000,0.000000,4.000000,4.000000,4.000000,66.666664,,,,,,,,,,,,,,,,,,,
1618540019.336902,32.000000,0.000000,4325.128418,4852.307617,4147.179688,4159.487305,4186.666504,0.000000,3.000000,73.000000,,,,0.000000,4.000000,0.000000,4.000000,4.000000,4.000000,66.666664,,,,,,,,16.000000,0.000000,0.732122,0.156006,0.593262,-0.296143,0.963882,0.108400,-0.239261,10.474085,4.373327,14.967724
1618540019.344718,33.000000,0.000000,4313.333496,4908.717773,4150.769043,4169.230957,4191.282227,0.000000,3.000000,73.000000,,,,0.000000,4.000000,0.000000,4.000000,4.000000,4.000000,66.666664,,,,,,,,,,,,,,,,,,,
1618540019.352534,34.000000,0.000000,4316.410156,4906.666504,4174.358887,4162.051270,4195.897461,0.000000,3.000000,73.000000,,,,0.000000,4.000000,0.000000,4.000000,4.000000,4.000000,66.666664,,,,,,,,17.000000,0.000000,0.732174,0.155762,0.593262,-0.296143,0.960952,0.096193,-0.239261,6.854616,6.388425,15.026151
1618540019.360350,35.000000,0.000000,4326.153809,4908.205078,4165.641113,4174.871582,4204.615234,0.000000,3.000000,73.000000,,,,0.000000,4.000000,0.000000,4.000000,4.000000,4.000000,66.666664,,,,,,,,,,,,,,,,,,,
1618540019.368166,36.000000,0.000000,4312.307617,4914.871582,4151.282227,4190.769043,4203.077148,0.000000,3.000000,73.000000,,,,0.000000,4.000000,0.000000,4.000000,4.000000,4.000000,66.666664,,,,,,,,18.000000,0.000000,0.731976,0.155762,0.593506,-0.296143,0.960464,0.106447,-0.248051,7.245831,4.553275,14.899289
1618540019.375982,37.000000,0.000000,4276.410156,4861.538574,4154.358887,4170.256348,4172.820313,0.000000,3.000000,73.000000,,,,0.000000,4.000000,0.000000,4.000000,4.000000,4.000000,66.666664,,,,,,,,,,,,,,,,,,,
1618540019.383798,38.000000,0.000000,4240.512695,4839.487305,4153.333496,4138.974121,4133.333496,0.000000,3.000000,73.000000,,,,0.000000,4.000000,0.000000,4.000000,4.000000,4.000000,66.666664,,,,,,,,19.000000,0.000000,0.732174,0.155762,0.593262,-0.296143,0.967300,0.102541,-0.247562,3.949187,6.610193,14.904744
1618540019.391515,39.000000,0.000000,4215.384766,4858.974121,4150.256348,4136.410156,4115.897461,0.000000,3.000000,73.000000,,,,0.000000,4.000000,0.000000,4.000000,4.000000,4.000000,66.666664,,,,,,,,,,,,,,,,,,,
1618540019.399331,40.000000,0.000000,4195.897461,4830.256348,4154.358887,4135.897461,4102.563965,0.000000,3.000000,73.000000,,,,0.000000,4.000000,0.000000,4.000000,4.000000,4.000000,66.666664,,,,,,,,20.000000,0.000000,0.731976,0.155762,0.593506,-0.296143,0.981949,0.108400,-0.242679,4.810391,4.752866,15.029284
1618540019.407147,41.000000,0.000000,4178.974121,4856.410156,4149.743652,4129.743652,4085.128174,0.000000,3.000000,73.000000,,,,0.000000,4.000000,0.000000,4.000000,4.000000,4.000000,66.666664,,,,,,,,,,,,,,,,,,,
1618540019.414963,42.000000,0.000000,4176.922852,4947.179688,4143.589844,4143.077148,4092.820557,0.000000,3.000000,73.000000,,,,0.000000,4.000000,0.000000,4.000000,4.000000,4.000000,66.666664,,,,,,,,21.000000,0.000000,0.732226,0.155518,0.593262,-0.296143,0.957534,0.118166,-0.247562,3.671383,6.969271,14.961925
1618540019.422779,43.000000,0.000000,4193.846191,4952.307617,4151.794922,4164.102539,4117.436035,0.000000,3.000000,73.000000,,,,0.000000,4.000000,0.000000,4.000000,4.000000,4.000000,66.666664,,,,,,,,,,,,,,,,,,,
1618540019.430595,44.000000,0.000000,4208.205078,4913.846191,4152.820313,4169.230957,4136.922852,0.000000,3.000000,73.000000,,,,0.000000,4.000000,0.000000,4.000000,4.000000,4.000000,66.666664,,,,,,,,22.000000,0.000000,0.732226,0.155518,0.593262,-0.296143,0.969253,0.102052,-0.243656,6.653905,5.076036,14.901301
1618540019.438411,45.000000,0.000000,4211.794922,4876.922852,4144.615234,4177.948730,4152.307617,0.000000,3.000000,73.000000,,,,0.000000,4.000000,0.000000,4.000000,4.000000,4.000000,66.666664,,,,,,,,,,,,,,,,,,,
1618540019.446227,46.000000,0.000000,4216.922852,4825.128418,4148.717773,4193.846191,4165.128418,0.000000,3.000000,73.000000,,,,0.000000,4.000000,0.000000,4.000000,4.000000,4.000000,66.666664,,,,,,,,23.000000,0.000000,0.732028,0.155518,0.593506,-0.296143,0.973648,0.108400,-0.241703,11.634387,1.778790,14.737820
1618540019.454143,47.000000,0.000000,4210.769043,4846.666504,4160.000000,4185.128418,4153.846191,0.000000,3.000000,73.000000,,,,0.000000,4.000000,0.000000,4.000000,4.000000,4.000000,66.666664,,,,,,,,,,,,,,,,,,,
1618540019.461960,48.000000,0.000000,4191.282227,4944.102539,4162.051270,4167.692383,4131.282227,0.000000,3.000000,73.000000,,,,0.000000,4.000000,0.000000,4.000000,4.000000,4.000000,66.666664,,,,,,,,24.000000,0.000000,0.732080,0.155273,0.593506,-0.296143,0.960464,0.116213,-0.247562,7.898888,4.172972,14.759421
1618540019.469776,49.000000,0.000000,4177.948730,4956.922852,4162.051270,4168.717773,4121.538574,0.000000,3.000000,73.000000,,,,0.000000,4.000000,0.000000,4.000000,4.000000,4.000000,66.666664,,,,,,,,,,,,,,,,,,,
1618540019.477592,50.000000,0.000000,4162.051270,4855.384766,4167.179688,4163.589844,4113.333496,0.000000,3.000000,73.000000,,,,0.000000,4.000000,0.000000,4.000000,4.000000,4.000000,66.666664,,,,,,,,25.000000,0.000000,0.732277,0.155273,0.593262,-0.296143,0.964370,0.117189,-0.248051,8.484753,2.559368,14.778864
1618540019.485409,51.000000,0.000000,4145.641113,4836.410156,4158.461426,4147.179688,4100.512695,0.000000,3.000000,73.000000,,,,0.000000,4.000000,0.000000,4.000000,4.000000,4.000000,66.666664,,,,,,,,,,,,,,,,,,,
1618540019.493225,52.000000,0.000000,4147.179688,4935.384766,4143.589844,4148.717773,4093.846191,0.000000,3.000000,73.000000,,,,0.000000,4.000000,0.000000,4.000000,4.000000,4.000000,66.666664,,,,,,,,26.000000,0.000000,0.732179,0.155273,0.593262,-0.296387,0.973159,0.105470,-0.248051,8.832584,4.875492,14.975807
1618540019.501041,53.000000,0.000000,4163.077148,4960.000000,4144.615234,4169.230957,4105.641113,0.000000,3.000000,73.000000,,,,0.000000,4.000000,0.000000,4.000000,4.000000,4.000000,66.666664,,,,,,,,,,,,,,,,,,,
1618540019.508858,54.000000,0.000000,4173.333496,4886.666504,4155.897461,4185.128418,4123.077148,0.000000,3.000000,73.000000,,,,0.000000,4.000000,0.000000,4.000000,4.000000,4.000000,66.666664,,,,,,,,27.000000,0.000000,0.731981,0.155273,0.593506,-0.296387,0.979995,0.101076,-0.246098,9.325080,3.191635,14.973611
1618540019.516774,55.000000,0.000000,4177.948730,4875.897461,4158.974121,4191.794922,4132.820313,0.000000,3.000000,73.000000,,,,0.000000,4.000000,0.000000,4.000000,4.000000,4.000000,66.666664,,,,,,,,,,,,,,,,,,,
1618540019.524590,56.000000,0.000000,4188.205078,4899.487305,4161.538574,4192.820313,4147.692383,0.000000,3.000000,73.000000,,,,0.000000,4.000000,0.000000,4.000000,4.000000,4.000000,66.666664,,,,,,,,28.000000,0.000000,0.731929,0.155518,0.593506,-0.296387,0.978531,0.109377,-0.245121,9.708509,1.556533,15.091265
1618540019.532406,57.000000,0.000000,4195.384766,4874.358887,4180.512695,4189.743652,4165.641113,0.000000,3.000000,73.000000,,,,0.000000,4.000000,0.000000,4.000000,4.000000,4.000000,66.666664,,,,,,,,,,,,,,,,,,,
1618540019.540223,58.000000,0.000000,4190.256348,4854.358887,4195.897461,4184.102539,4159.487305,0.000000,3.000000,73.000000,,,,0.000000,4.000000,0.000000,4.000000,4.000000,4.000000,66.666664,,,,,,,,29.000000,0.000000,0.731929,0.155518,0.593506,-0.296387,0.959976,0.099611,-0.241703,8.139505,0.264388,15.197153
1618540019.548039,59.000000,0.000000,4172.307617,4844.102539,4189.743652,4172.307617,4135.384766,0.000000,3.000000,73.000000,,,,0.000000,4.000000,0.000000,4.000000,4.000000,4.000000,66.666664,,,,,,,,,,,,,,,,,,,
1618540019.555855,60.000000,0.000000,4156.922852,4855.384766,4178.461426,4161.538574,4127.692383,0.000000,3.000000,73.000000,,,,0.000000,4.000000,0.000000,4.000000,4.000000,4.000000,66.666664,,,,,,,,30.000000,0.000000,0.731929,0.155518,0.593506,-0.296387,0.976577,0.107424,-0.250004,10.435953,-0.958358,15.113007
1618540019.563672,61.000000,0.000000,4147.179688,4925.641113,4168.205078,4155.897461,4127.179688,0.000000,3.000000,73.000000,,,,0.000000,4.000000,0.000000,4.000000,4.000000,4.000000,66.666664,,,,,,,,,,,,,,,,,,,
1618540019.571488,62.000000,0.000000,4136.922852,4929.230957,4145.641113,4146.666504,4110.769043,0.000000,3.000000,73.000000,,,,0.000000,4.000000,0.000000,4.000000,4.000000,4.000000,66.666664,,,,,,,,31.000000,0.000000,0.731877,0.155762,0.593506,-0.296387,0.980484,0.104494,-0.254887,12.562572,-2.118645,15.037274
1618540019.579304,63.000000,0.000000,4135.897461,4828.717773,4123.589844,4142.563965,4103.589844,0.000000,3.000000,73.000000,,,,0.000000,4.000000,0.000000,4.000000,4.000000,4.000000,66.666664,,,,,,,,,,,,,,,,,,,
1618540019.587220,64.000000,0.000000,4145.641113,4815.384766,4130.256348,4154.358887,4121.538574,450.000000,3.000000,73.000000,,,,0.000000,4.000000,0.000000,4.000000,4.000000,4.000000,66.666664,,,,,,,,32.000000,0.000000,0.731976,0.155762,0.593506,-0.296143,0.975601,0.103517,-0.241703,12.502623,-3.043272,15.088747
1618540019.595037,65.000000,0.000000,4153.333496,4898.974121,4147.692383,4165.128418,4134.871582,450.000000,3.000000,73.000000,,,,0.000000,4.000000,0.000000,4.000000,4.000000,4.000000,66.666664,,,,,,,,,,,,,,,,,,,
1618540019.602853,66.000000,0.000000,4155.897461,4911.282227,4147.179688,4164.615234,4132.820313,16231.000000,3.000000,73.000000,,,,0.000000,4.000000,0.000000,4.000000,4.000000,4.000000,66.666664,,,,,,,,33.000000,0.000000,0.731778,0.155762,0.593750,-0.296143,0.964858,0.110842,-0.235843,8.740115,-0.047254,15.135072
1618540019.610669,67.000000,0.000000,4164.615234,4846.153809,4153.846191,4169.743652,4135.384766,450.000000,3.000000,73.000000,,,,0.000000,4.000000,0.000000,4.000000,4.000000,4.000000,66.666664,,,,,,,,,,,,,,,,,,,
1618540019.618486,68.000000,0.000000,4178.974121,4848.717773,4183.589844,4184.102539,4147.692383,0.000000,3.000000,73.000000,,,,0.000000,4.000000,0.000000,4.000000,4.000000,4.000000,66.666664,,,,,,,,34.000000,0.000000,0.732126,0.155518,0.593506,-0.295898,0.974624,0.103517,-0.254887,9.182041,-1.298651,15.116948
1618540019.626302,69.000000,0.000000,4181.025879,4873.333496,4206.666504,4187.179688,4154.358887,450.000000,3.000000,73.000000,,,,0.000000,4.000000,0.000000,4.000000,4.000000,4.000000,66.666664,,,,,,,,,,,,,,,,,,,
1618540019.634118,70.000000,0.000000,4166.666504,4852.820313,4205.128418,4176.410156,4150.769043,16204.000000,3.000000,73.000000,,,,0.000000,4.000000,0.000000,4.000000,4.000000,4.000000,66.666664,,,,,,,,35.000000,0.000000,0.732028,0.155518,0.593506,-0.296143,0.963394,0.106935,-0.242191,9.460145,-2.305278,15.160453
1618540019.641935,71.000000,0.000000,4160.512695,4902.051270,4196.922852,4167.179688,4138.461426,450.000000,3.000000,73.000000,,,,0.000000,4.000000,0.000000,4.000000,4.000000,4.000000,66.666664,,,,,,,,,,,,,,,,,,,
1618540019.649751,72.000000,0.000000,4183.077148,4944.615234,4199.487305,4175.384766,4131.282227,450.000000,3.000000,73.000000,,,,0.000000,4.000000,0.000000,4.000000,4.000000,4.000000,66.666664,,,,,,,,36.000000,0.000000,0.732080,0.155273,0.593506,-0.296143,0.972671,0.115236,-0.239261,7.796346,-3.330873,15.199608
1618540019.657667,73.000000,0.000000,4201.538574,4885.641113,4200.512695,4195.897461,4128.717773,16094.000000,3.000000,73.000000,,,,0.000000,4.000000,0.000000,4.000000,4.000000,4.000000,66.666664,,,,,,,,,,,,,,,,,,,
1618540019.665483,74.000000,0.000000,4195.897461,4854.871582,4201.025879,4211.282227,4123.077148,450.000000,3.000000,73.000000,,,,0.000000,4.000000,0.000000,4.000000,4.000000,4.000000,66.666664,,,,,,,,37.000000,0.000000,0.731882,0.155273,0.593750,-0.296143,0.973159,0.110842,-0.250492,6.478373,-4.373539,15.175031
1618540019.673299,75.000000,0.000000,4202.563965,4888.205078,4210.256348,4219.487305,4137.436035,16221.000000,3.000000,73.000000,,,,0.000000,4.000000,0.000000,4.000000,4.000000,4.000000,66.666664,,,,,,,,,,,,,,,,,,,
1618540019.681115,76.000000,0.000000,4229.743652,4895.897461,4229.230957,4227.692383,4166.153809,450.000000,3.000000,73.000000,,,,0.000000,4.000000,0.000000,4.000000,4.000000,4.000000,66.666664,,,,,,,,38.000000,0.000000,0.731882,0.155273,0.593750,-0.296143,0.967788,0.105959,-0.251469,7.086658,-5.252123,15.033281
1618540019.688931,77.000000,0.000000,4242.051270,4898.974121,4247.179688,4235.384766,4176.410156,450.000000,3.000000,73.000000,,,,0.000000,4.000000,0.000000,4.000000,4.000000,4.000000,66.666664,,,,,,,,,,,,,,,,,,,
1618540019.696747,78.000000,0.000000,4254.358887,4895.384766,4262.563965,4236.410156,4190.769043,450.000000,3.000000,73.000000,,,,0.000000,4.000000,0.000000,4.000000,4.000000,4.000000,66.666664,,,,,,,,39.000000,0.000000,0.731933,0.155029,0.593750,-0.296143,0.971695,0.118166,-0.254398,3.805932,-2.035219,15.025337
1618540019.704563,79.000000,0.000000,4296.410156,4894.358887,4280.000000,4227.179688,4232.820313,16221.000000,3.000000,73.000000,,,,0.000000,4.000000,0.000000,4.000000,4.000000,4.000000,66.666664,,,,,,,,,,,,,,,,,,,
1618540019.712480,80.000000,0.000000,4350.256348,4939.487305,4290.256348,4220.512695,4276.922852,450.000000,3.000000,73.000000,,,,0.000000,4.000000,0.000000,4.000000,4.000000,4.000000,66.666664,,,,,,,,40.000000,0.000000,0.731882,0.155273,0.593750,-0.296143,0.973159,0.110842,-0.250492,2.887000,-3.207451,15.018188
1618540019.720296,81.000000,0.000000,4401.538574,4920.512695,4284.615234,4226.153809,4322.051270,450.000000,3.000000,73.000000,,,,0.000000,4.000000,0.000000,4.000000,4.000000,4.000000,66.666664,,,,,,,,,,,,,,,,,,,
1618540019.728112,82.000000,0.000000,4455.897461,4865.641113,4263.589844,4226.666504,4377.948730,450.000000,3.000000,73.000000,,,,0.000000,4.000000,0.000000,4.000000,4.000000,4.000000,66.666664,,,,,,,,41.000000,0.000000,0.731933,0.155029,0.593750,-0.296143,0.980484,0.121584,-0.237797,3.854423,-0.254830,15.131384
1618540019.735929,83.000000,0.000000,4504.102539,4889.743652,4248.205078,4217.948730,4422.563965,16221.000000,3.000000,73.000000,,,,0.000000,4.000000,0.000000,4.000000,4.000000,4.000000,66.666664,,,,,,,,,,,,,,,,,,,
1618540019.743745,84.000000,0.000000,4537.436035,4945.128418,4253.333496,4228.717773,4454.871582,450.000000,3.000000,73.000000,,,,0.000000,4.000000,0.000000,4.000000,4.000000,4.000000,66.666664,,,,,,,,42.000000,0.000000,0.731933,0.155029,0.593750,-0.296143,0.960464,0.118654,-0.245609,4.725103,-1.365839,15.113629
1618540019.751561,85.000000,0.000000,4572.307617,4968.717773,4267.692383,4251.794922,4493.846191,450.000000,3.000000,73.000000,,,,0.000000,4.000000,0.000000,4.000000,4.000000,4.000000,66.666664,,,,,,,,,,,,,,,,,,,
1618540019.759378,86.000000,0.000000,4614.871582,4920.000000,4281.538574,4252.820313,4529.743652,450.000000,3.000000,73.000000,,,,0.000000,4.000000,0.000000,4.000000,4.000000,4.000000,66.666664,,,,,,,,43.000000,0.000000,0.731882,0.155273,0.593750,-0.296143,0.972183,0.112795,-0.246586,5.269454,-2.485377,15.217281
1618540019.767194,87.000000,0.000000,4651.282227,4854.358887,4291.794922,4241.538574,4561.025879,16221.000000,3.000000,73.000000,,,,0.000000,4.000000,0.000000,4.000000,4.000000,4.000000,66.666664,,,,,,,,,,,,,,,,,,,
1618540019.775109,88.000000,0.000000,4681.025879,4878.461426,4296.922852,4246.666504,4601.025879,450.000000,3.000000,73.000000,,,,0.000000,4.000000,0.000000,4.000000,4.000000,4.000000,66.666664,0.968750,50.000000,3.000000,0.000000,4.000000,4.000000,3.000000,44.000000,0.000000,0.731933,0.155029,0.593750,-0.296143,0.963394,0.109865,-0.253422,5.998631,-3.193886,15.071306
1618540019.782925,89.000000,0.000000,4702.563965,4937.436035,4307.179688,4248.717773,4624.102539,450.000000,3.000000,73.000000,,,,0.000000,4.000000,0.000000,4.000000,4.000000,4.000000,66.666664,,,,,,,,,,,,,,,,,,,
1618540019.790741,90.000000,0.000000,4704.102539,4943.589844,4317.948730,4234.358887,4621.025879,450.000000,3.000000,73.000000,,,,0.000000,4.000000,0.000000,4.000000,4.000000,4.000000,66.666664,,,,,,,,45.000000,0.000000,0.731933,0.155029,0.593750,-0.296143,0.978531,0.122560,-0.239261,4.740799,-0.242621,14.999744
1618540019.798657,91.000000,0.000000,4703.077148,4898.461426,4316.922852,4233.333496,4624.615234,16221.000000,3.000000,73.000000,,,,0.000000,4.000000,0.000000,4.000000,4.000000,4.000000,66.666664,,,,,,,,,,,,,,,,,,,
1618540019.806473,92.000000,0.000000,4711.794922,4864.615234,4313.333496,4241.025879,4634.871582,450.000000,3.000000,73.000000,,,,0.000000,4.000000,0.000000,4.000000,4.000000,4.000000,66.666664,,,,,,,,46.000000,0.000000,0.731933,0.155029,0.593750,-0.296143,0.957046,0.110353,-0.247562,7.616380,-1.354851,15.054970
1618540019.814289,93.000000,0.000000,4708.205078,4923.589844,4305.641113,4227.179688,4630.769043,450.000000,3.000000,73.000000,,,,0.000000,4.000000,0.000000,4.000000,4.000000,4.000000,66.666664,,,,,,,,,,,,,,,,,,,
1618540019.822105,94.000000,0.000000,4690.256348,4991.282227,4290.256348,4218.974121,4621.538574,450.000000,3.000000,73.000000,,,,0.000000,4.000000,0.000000,4.000000,4.000000,4.000000,66.666664,,,,,,,,47.000000,0.000000,0.731985,0.154785,0.593750,-0.296143,0.974136,0.125978,-0.246586,4.282681,1.412510,15.164488
1618540019.829921,95.000000,0.000000,4684.102539,4887.179688,4290.256348,4236.410156,4608.205078,16221.000000,3.000000,73.000000,,,,0.000000,4.000000,0.000000,4.000000,4.000000,4.000000,66.666664,,,,,,,,,,,,,,,,,,,
1618540019.837737,96.000000,0.000000,4686.666504,4832.307617,4300.512695,4241.025879,4599.487305,450.000000,3.000000,73.000000,,,,0.000000,4.000000,0.000000,4.000000,4.000000,4.000000,66.666664,,,,,,,,48.000000,0.000000,0.731985,0.154785,0.593750,-0.296143,0.974624,0.110842,-0.241215,7.084443,-0.044679,15.263054
1618540019.845553,97.000000,0.000000,4693.846191,4942.563965,4300.512695,4236.410156,4613.333496,450.000000,3.000000,73.000000,,,,0.000000,4.000000,0.000000,4.000000,4.000000,4.000000,66.666664,,,,,,,,,,,,,,,,,,,
1618540019.853469,98.000000,0.000000,4706.666504,4919.487305,4311.282227,4247.179688,4623.077148,450.000000,3.000000,73.000000,,,,0.000000,4.000000,0.000000,4.000000,4.000000,4.000000,66.666664,,,,,,,,49.000000,0.000000,0.731985,0.154785,0.593750,-0.296143,0.970718,0.109865,-0.247074,7.751752,-1.356149,15.232133
1618540019.861285,99.000000,0.000000,4705.641113,4865.128418,4322.563965,4252.820313,4622.051270,16221.000000,3.000000,73.000000,,,,0.000000,4.000000,0.000000,4.000000,4.000000,4.000000,66.666664,,,,,,,,,,,,,,,,,,,
1618540019.869102,100.000000,0.000000,4702.563965,4954.358887,4317.436035,4249.743652,4639.487305,450.000000,3.000000,73.000000,,,,0.000000,4.000000,0.000000,4.000000,4.000000,4.000000,66.666664,,,,,,,,50.000000,0.000000,0.732037,0.154541,0.593750,-0.296143,0.962417,0.115236,-0.255375,8.352330,-2.297210,15.264119
1618540019.876918,101.000000,0.000000,4708.205078,4941.538574,4324.102539,4245.641113,4654.871582,450.000000,3.000000,73.000000,,,,0.000000,4.000000,0.000000,4.000000,4.000000,4.000000,66.666664,,,,,,,,,,,,,,,,,,,
1618540019.884734,102.000000,0.000000,4708.205078,4836.410156,4325.128418,4241.025879,4654.358887,450.000000,3.000000,73.000000,,,,0.000000,4.000000,0.000000,4.000000,4.000000,4.000000,66.666664,,,,,,,,51.000000,0.000000,0.732037,0.154541,0.593750,-0.296143,0.971206,0.108400,-0.253422,8.892851,-3.443243,15.173276
1618540019.892551,103.000000,0.000000,4700.512695,4875.897461,4300.512695,4245.128418,4658.974121,16221.000000,3.000000,73.000000,,,,0.000000,4.000000,0.000000,4.000000,4.000000,4.000000,66.666664,,,,,,,,,,,,,,,,,,,
1618540019.900467,104.000000,0.000000,4700.000000,4916.922852,4305.641113,4257.436035,4663.589844,450.000000,3.000000,73.000000,,,,0.000000,4.000000,0.000000,4.000000,4.000000,4.000000,66.666664,,,,,,,,52.000000,0.000000,0.732037,0.154541,0.593750,-0.296143,0.966812,0.119142,-0.250004,9.379319,-0.526858,15.031702
1618540019.908283,105.000000,0.000000,4709.743652,4868.205078,4338.974121,4265.128418,4669.230957,450.000000,3.000000,73.000000,,,,0.000000,4.000000,0.000000,4.000000,4.000000,4.000000,66.666664,,,,,,,,,,,,,,,,,,,
1618540019.916100,106.000000,0.000000,4713.846191,4867.179688,4335.897461,4265.641113,4679.487305,450.000000,3.000000,73.000000,,,,0.000000,4.000000,0.000000,4.000000,4.000000,4.000000,66.666664,,,,,,,,53.000000,0.000000,0.732037,0.154541,0.593750,-0.296143,0.974136,0.111330,-0.245609,9.817141,2.157704,15.023915
1618540019.923916,107.000000,0.000000,4715.897461,4912.307617,4321.025879,4264.102539,4690.256348,16221.000000,3.000000,73.000000,,,,0.000000,4.000000,0.000000,4.000000,4.000000,4.000000,66.666664,,,,,,,,,,,,,,,,,,,
1618540019.931732,108.000000,0.000000,4724.102539,4966.153809,4331.794922,4268.205078,4707.692383,450.000000,3.000000,73.000000,,,,0.000000,4.000000,0.000000,4.000000,4.000000,4.000000,66.666664,,,,,,,,54.000000,0.000000,0.731740,0.154541,0.593994,-0.296387,0.959487,0.107912,-0.243168,6.323181,4.573810,15.016908
1618540019.939549,109.000000,0.000000,4727.692383,4953.846191,4350.256348,4276.922852,4714.871582,450.000000,3.000000,73.000000,,,,0.000000,4.000000,0.000000,4.000000,4.000000,4.000000,66.666664,,,,,,,,,,,,,,,,,,,
1618540019.947465,110.000000,0.000000,4718.461426,4911.794922,4359.487305,4274.358887,4707.179688,450.000000,3.000000,73.000000,,,,0.000000,4.000000,0.000000,4.000000,4.000000,4.000000,66.666664,,,,,,,,55.000000,0.000000,0.731938,0.154541,0.593750,-0.296387,0.968277,0.111330,-0.252934,7.066617,2.860306,15.010601
1618540019.955282,111.000000,0.000000,4710.256348,4898.974121,4355.897461,4271.282227,4707.692383,16221.000000,3.000000,73.000000,,,,0.000000,4.000000,0.000000,4.000000,4.000000,4.000000,66.666664,,,,,,,,,,,,,,,,,,,
1618540019.963098,112.000000,0.000000,4711.282227,4890.769043,4359.487305,4277.948730,4708.717773,450.000000,3.000000,73.000000,,,,0.000000,4.000000,0.000000,4.000000,4.000000,4.000000,66.666664,,,,,,,,56.000000,0.000000,0.731791,0.154297,0.593994,-0.296387,0.972671,0.115236,-0.235843,7.616077,4.966890,15.064741
1618540019.970915,113.000000,0.000000,4704.102539,4938.461426,4363.589844,4278.974121,4705.128418,450.000000,3.000000,73.000000,,,,0.000000,4.000000,0.000000,4.000000,4.000000,4.000000,66.666664,,,,,,,,,,,,,,,,,,,
1618540019.978731,114.000000,0.000000,4688.717773,4959.487305,4353.333496,4285.128418,4708.205078,450.000000,3.000000,73.000000,,,,0.000000,4.000000,0.000000,4.000000,4.000000,4.000000,66.666664,,,,,,,,57.000000,0.000000,0.731791,0.154297,0.593994,-0.296387,0.970230,0.123049,-0.236332,8.230223,3.453340,15.053651
1618540019.986548,115.000000,0.000000,4663.589844,4844.102539,4352.307617,4291.794922,4677.948730,16221.000000,3.000000,73.000000,,,,0.000000,4.000000,0.000000,4.000000,4.000000,4.000000,66.666664,,,,,,,,,,,,,,,,,,,
1618540019.994364,116.000000,0.000000,4620.512695,4796.410156,4364.615234,4281.538574,4622.051270,450.000000,3.000000,73.000000,,,,0.000000,4.000000,0.000000,4.000000,4.000000,4.000000,66.666664,,,,,,,,58.000000,0.000000,0.731890,0.154297,0.593994,-0.296143,0.964858,0.112306,-0.241215,10.697046,1.792068,14.924039
1618540020.002181,117.000000,0.000000,4570.256348,4921.025879,4350.769043,4278.974121,4594.358887,450.000000,3.000000,73.000000,,,,0.000000,4.000000,0.000000,4.000000,4.000000,4.000000,66.666664,,,,,,,,,,,,,,,,,,,
1618540020.010097,118.000000,0.000000,4513.333496,4960.000000,4318.974121,4284.102539,4564.102539,450.000000,3.000000,73.000000,,,,0.000000,4.000000,0.000000,4.000000,4.000000,4.000000,66.666664,,,,,,,,59.000000,0.000000,0.731839,0.154541,0.593994,-0.296143,0.975601,0.115236,-0.237308,10.883464,4.065291,14.867204
1618540020.017913,119.000000,0.000000,4449.230957,4897.436035,4306.666504,4276.410156,4513.333496,16221.000000,3.000000,73.000000,,,,0.000000,4.000000,0.000000,4.000000,4.000000,4.000000,66.666664,,,,,,,,,,,,,,,,,,,
1618540020.025730,120.000000,0.000000,4401.025879,4940.512695,4311.794922,4273.846191,4487.179688,450.000000,3.000000,73.000000,,,,0.000000,4.000000,0.000000,4.000000,4.000000,4.000000,66.666664,,,,,,,,60.000000,0.000000,0.732084,0.154785,0.593750,-0.295898,0.979995,0.118166,-0.246098,11.051240,6.171007,14.756237
1618540020.033546,121.000000,0.000000,4372.820313,4976.922852,4326.666504,4277.436035,4470.256348,450.000000,3.000000,73.000000,,,,0.000000,4.000000,0.000000,4.000000,4.000000,4.000000,66.666664,,,,,,,,,,,,,,,,,,,
1618540020.041362,122.000000,0.000000,4340.000000,4882.051270,4335.897461,4265.128418,4432.307617,450.000000,3.000000,73.000000,,,,0.000000,4.000000,0.000000,4.000000,4.000000,4.000000,66.666664,,,,,,,,61.000000,0.000000,0.731890,0.154297,0.593994,-0.296143,0.964858,0.112306,-0.241215,13.176146,4.417415,14.716182
1618540020.049179,123.000000,0.000000,4309.743652,4849.230957,4329.743652,4264.102539,4415.897461,16221.000000,3.000000,73.000000,,,,0.000000,4.000000,0.000000,4.000000,4.000000,4.000000,66.666664,,,,,,,,,,,,,,,,,,,
1618540020.056995,124.000000,0.000000,4295.897461,4950.769043,4328.205078,4292.307617,4429.230957,450.000000,3.000000,73.000000,,,,0.000000,4.000000,0.000000,4.000000,4.000000,4.000000,66.666664,,,,,,,,62.000000,0.000000,0.732084,0.154785,0.593750,-0.295898,0.979995,0.118166,-0.246098,13.114655,6.487918,14.620317
1618540020.064911,125.000000,0.000000,4277.948730,4972.307617,4337.948730,4310.769043,4414.871582,450.000000,3.000000,73.000000,,,,0.000000,4.000000,0.000000,4.000000,4.000000,4.000000,66.666664,,,,,,,,,,,,,,,,,,,
1618540020.072728,126.000000,0.000000,4240.000000,4887.692383,4338.461426,4299.487305,4366.666504,450.000000,3.000000,73.000000,,,,0.000000,4.000000,0.000000,4.000000,4.000000,4.000000,66.666664,,,,,,,,63.000000,0.000000,0.732182,0.154785,0.593750,-0.295654,0.968765,0.117678,-0.246586,13.119126,8.590633,14.713485
1618540020.080545,127.000000,0.000000,4185.128418,4838.461426,4316.922852,4283.589844,4315.384766,238.000000,3.000000,73.000000,,,,0.000000,4.000000,0.000000,4.000000,4.000000,4.000000,66.666664,,,,,,,,,,,,,,,,,,,
1618540020.088361,0.000000,0.000000,4120.512695,4814.358887,4287.692383,4276.410156,4257.436035,450.000000,3.000000,73.000000,,,,0.000000,4.000000,0.000000,4.000000,4.000000,4.000000,66.666664,,,,,,,,0.000000,0.000000,0.732131,0.155029,0.593750,-0.295654,0.972183,0.119631,-0.256352,12.943706,6.654893,14.737521
1618540020.096178,1.000000,0.000000,4062.564209,4826.666504,4267.692383,4270.769043,4191.794922,450.000000,3.000000,73.000000,,,,0.000000,4.000000,0.000000,4.000000,4.000000,4.000000,66.666664,,,,,,,,,,,,,,,,,,,
1618540020.103994,2.000000,0.000000,4019.487061,4897.436035,4257.948730,4267.692383,4147.692383,16222.000000,3.000000,73.000000,,,,0.000000,4.000000,0.000000,4.000000,4.000000,4.000000,66.666664,,,,,,,,1.000000,0.000000,0.732079,0.155273,0.593750,-0.295654,0.969741,0.121584,-0.243656,12.905458,8.501650,14.639523
1618540020.111811,3.000000,0.000000,3981.538574,4914.358887,4254.871582,4266.666504,4121.025879,450.000000,3.000000,73.000000,,,,0.000000,4.000000,0.000000,4.000000,4.000000,4.000000,66.666664,,,,,,,,,,,,,,,,,,,
1618540020.119627,4.000000,0.000000,3952.820557,4884.615234,4257.436035,4267.179688,4103.077148,0.000000,3.000000,73.000000,,,,0.000000,4.000000,0.000000,4.000000,4.000000,4.000000,66.666664,,,,,,,,2.000000,0.000000,0.732126,0.155518,0.593750,-0.295410,0.976089,0.114748,-0.250492,14.725311,6.335546,14.670954
1618540020.127544,5.000000,0.000000,3941.538574,4885.641113,4260.512695,4277.436035,4094.358887,450.000000,3.000000,73.000000,,,,0.000000,4.000000,0.000000,4.000000,4.000000,4.000000,66.666664,,,,,,,,,,,,,,,,,,,
1618540020.135360,6.000000,0.000000,3943.589844,4896.410156,4266.666504,4288.717773,4096.922852,16187.000000,3.000000,73.000000,,,,0.000000,4.000000,0.000000,4.000000,4.000000,4.000000,66.666664,,,,,,,,3.000000,0.000000,0.732126,0.155518,0.593750,-0.295410,0.959487,0.122560,-0.251957,16.363178,4.445869,14.699243
1618540020.143177,7.000000,0.000000,3961.538574,4932.820313,4276.922852,4290.769043,4116.922852,450.000000,3.000000,73.000000,,,,0.000000,4.000000,0.000000,4.000000,4.000000,4.000000,66.666664,,,,,,,,,,,,,,,,,,,
1618540020.150993,8.000000,0.000000,3991.794922,4948.717773,4282.051270,4289.743652,4140.512695,450.000000,3.000000,73.000000,,,,0.000000,4.000000,0.000000,4.000000,4.000000,4.000000,66.666664,,,,,,,,4.000000,0.000000,0.732370,0.155762,0.593506,-0.295166,0.975113,0.113771,-0.235355,16.042799,2.685344,14.784518
1618540020.158810,9.000000,0.000000,4003.076904,4907.179688,4288.205078,4282.051270,4143.589844,16087.000000,3.000000,73.000000,,,,0.000000,4.000000,0.000000,4.000000,4.000000,4.000000,66.666664,,,,,,,,,,,,,,,,,,,
1618540020.166627,10.000000,0.000000,3986.666748,4888.205078,4296.410156,4267.179688,4128.717773,450.000000,3.000000,73.000000,,,,0.000000,4.000000,0.000000,4.000000,4.000000,4.000000,66.666664,,,,,,,,5.000000,0.000000,0.732469,0.155762,0.593506,-0.294922,0.966812,0.109377,-0.236332,15.694642,1.280318,14.801451
1618540020.174443,11.000000,0.000000,3965.128174,4895.384766,4293.846191,4260.000000,4111.794922,16220.000000,3.000000,73.000000,,,,0.000000,4.000000,0.000000,4.000000,4.000000,4.000000,66.666664,,,,,,,,,,,,,,,,,,,
1618540020.182260,12.000000,0.000000,3951.794922,4904.615234,4287.692383,4262.051270,4098.974121,450.000000,3.000000,73.000000,,,,0.000000,4.000000,0.000000,4.000000,4.000000,4.000000,66.666664,,,,,,,,6.000000,0.000000,0.732515,0.156006,0.593506,-0.294678,0.958022,0.116701,-0.256352,11.493301,3.604716,14.756874
1618540020.190176,13.000000,0.000000,3938.974365,4915.897461,4287.179688,4267.692383,4092.307617,450.000000,3.000000,73.000000,,,,0.000000,4.000000,0.000000,4.000000,4.000000,4.000000,66.666664,,,,,,,,,,,,,,,,,,,
1618540020.197993,14.000000,0.000000,3912.820557,4909.230957,4284.615234,4268.205078,4077.948730,450.000000,3.000000,73.000000,,,,0.000000,4.000000,0.000000,4.000000,4.000000,4.000000,66.666664,,,,,,,,7.000000,0.000000,0.732561,0.156250,0.593506,-0.294434,0.970718,0.089357,-0.249516,11.540278,5.756490,14.836387
1618540020.205809,15.000000,0.000000,3894.358887,4906.153809,4278.974121,4262.051270,4064.615479,16220.000000,3.000000,73.000000,,,,0.000000,4.000000,0.000000,4.000000,4.000000,4.000000,66.666664,,,,,,,,,,,,,,,,,,,
1618540020.213626,16.000000,0.000000,3916.410156,4939.487305,4280.512695,4262.051270,4082.564209,0.000000,3.000000,73.000000,,,,0.000000,4.000000,0.000000,4.000000,4.000000,4.000000,66.666664,,,,,,,,8.000000,0.000000,0.732607,0.156494,0.593506,-0.294189,0.976577,0.101564,-0.245609,7.933821,7.633271,14.788317
1618540020.221442,17.000000,0.000000,3958.974365,4935.384766,4290.256348,4271.794922,4115.384766,0.000000,3.000000,73.000000,,,,0.000000,4.000000,0.000000,4.000000,4.000000,4.000000,66.666664,,,,,,,,,,,,,,,,,,,
1618540020.229259,18.000000,0.000000,3983.589844,4880.000000,4302.563965,4283.077148,4134.871582,0.000000,3.000000,73.000000,,,,0.000000,4.000000,0.000000,4.000000,4.000000,4.000000,66.666664,,,,,,,,9.000000,0.000000,0.732705,0.156494,0.593506,-0.293945,0.963882,0.100099,-0.237308,10.370469,5.494190,14.745053
1618540020.237075,19.000000,0.000000,3988.205078,4894.871582,4304.615234,4287.179688,4141.025879,0.000000,3.000000,73.000000,,,,0.000000,4.000000,0.000000,4.000000,4.000000,4.000000,66.666664,,,,,,,,,,,,,,,,,,,
1618540020.244892,20.000000,0.000000,3984.102539,4936.410156,4295.897461,4278.974121,4136.410156,0.000000,3.000000,73.000000,,,,0.000000,4.000000,0.000000,4.000000,4.000000,4.000000,66.666664,,,,,,,,10.000000,0.000000,0.732751,0.156738,0.593506,-0.293701,0.972671,0.087404,-0.247562,6.761361,7.397202,14.765932
1618540020.252809,21.000000,0.000000,3978.461426,4913.333496,4290.256348,4265.641113,4123.077148,0.000000,3.000000,73.000000,,,,0.000000,4.000000,0.000000,4.000000,4.000000,4.000000,66.666664,,,,,,,,,,,,,,,,,,,
1618540020.260625,22.000000,0.000000,3971.794922,4848.717773,4286.666504,4257.436035,4110.256348,0.000000,3.000000,73.000000,,,,0.000000,4.000000,0.000000,4.000000,4.000000,4.000000,66.666664,,,,,,,,11.000000,0.000000,0.732948,0.156738,0.593262,-0.293701,0.958511,0.095705,-0.238773,5.427256,5.341543,14.724908
1618540020.268442,23.000000,0.000000,3957.435791,4818.974121,4273.333496,4255.384766,4098.974121,0.000000,3.000000,73.000000,,,,0.000000,4.000000,0.000000,4.000000,4.000000,4.000000,66.666664,,,,,,,,,,,,,,,,,,,
1618540020.276259,24.000000,0.000000,3947.179443,4885.128418,4256.410156,4252.307617,4087.179443,0.000000,3.000000,73.000000,,,,0.000000,4.000000,0.000000,4.000000,4.000000,4.000000,66.666664,0.980469,33.333332,1.000000,0.000000,4.000000,4.000000,3.000000,12.000000,0.000000,0.732948,0.156738,0.593262,-0.293701,0.952163,0.090333,-0.244633,8.234191,3.551266,14.628170
1618540020.284076,25.000000,0.000000,3944.102539,4965.641113,4248.717773,4246.153809,4075.897461,0.000000,3.000000,73.000000,,,,0.000000,4.000000,0.000000,4.000000,4.000000,4.000000,66.666664,,,,,,,,,,,,,,,,,,,
1618540020.291893,26.000000,0.000000,3942.051270,4958.974121,4252.820313,4248.205078,4075.897461,0.000000,3.000000,73.000000,,,,0.000000,4.000000,0.000000,4.000000,4.000000,4.000000,66.666664,,,,,,,,13.000000,0.000000,0.732948,0.156738,0.593262,-0.293701,0.976577,0.094240,-0.238285,8.786525,1.880201,14.660738
1618540020.299709,27.000000,0.000000,3947.179443,4897.436035,4251.282227,4251.794922,4091.794922,0.000000,3.000000,73.000000,,,,0.000000,4.000000,0.000000,4.000000,4.000000,4.000000,66.666664,,,,,,,,,,,,,,,,,,,
1618540020.307526,28.000000,0.000000,3955.384521,4852.307617,4245.641113,4253.846191,4106.153809,0.000000,3.000000,73.000000,,,,0.000000,4.000000,0.000000,4.000000,4.000000,4.000000,66.666664,,,,,,,,14.000000,0.000000,0.732948,0.156738,0.593262,-0.293701,0.980972,0.102541,-0.238773,9.283626,0.436059,14.690048
1618540020.315343,29.000000,0.000000,3964.102539,4874.358887,4249.743652,4262.563965,4112.820313,0.000000,3.000000,73.000000,,,,0.000000,4.000000,0.000000,4.000000,4.000000,4.000000,66.666664,,,,,,,,,,,,,,,,,,,
1618540020.323160,30.000000,0.000000,3981.025635,4920.512695,4260.000000,4269.230957,4125.128418,0.000000,3.000000,73.000000,,,,0.000000,4.000000,0.000000,4.000000,4.000000,4.000000,66.666664,,,,,,,,15.000000,0.000000,0.733001,0.156494,0.593262,-0.293701,0.977554,0.110842,-0.246098,7.816925,2.904698,14.776242
1618540020.331076,31.000000,0.000000,3988.205078,4924.102539,4261.538574,4269.743652,4134.358887,0.000000,3.000000,73.000000,,,,0.000000,4.000000,0.000000,4.000000,4.000000,4.000000,66.666664,,,,,,,,,,,,,,,,,,,
1618540020.338893,32.000000,0.000000,3990.769287,4904.102539,4257.436035,4272.820313,4133.333496,0.000000,3.000000,73.000000,,,,0.000000,4.000000,0.000000,4.000000,4.000000,4.000000,66.666664,,,,,,,,16.000000,0.000000,0.733001,0.156494,0.593262,-0.293701,0.970718,0.094240,-0.243656,10.325078,1.477736,14.853818
1618540020.346709,33.000000,0.000000,3998.461426,4898.461426,4256.922852,4274.871582,4128.717773,0.000000,3.000000,73.000000,,,,0.000000,4.000000,0.000000,4.000000,4.000000,4.000000,66.666664,,,,,,,,,,,,,,,,,,,
1618540020.354526,34.000000,0.000000,3991.794922,4888.205078,4257.436035,4267.179688,4112.820313,0.000000,3.000000,73.000000,,,,0.000000,4.000000,0.000000,4.000000,4.000000,4.000000,66.666664,,,,,,,,17.000000,0.000000,0.733001,0.156494,0.593262,-0.293701,0.956069,0.098146,-0.241703,8.754231,4.081470,14.863820
1618540020.362342,35.000000,0.000000,3975.897461,4878.461426,4251.282227,4260.000000,4091.281982,0.000000,3.000000,73.000000,,,,0.000000,4.000000,0.000000,4.000000,4.000000,4.000000,66.666664,,,,,,,,,,,,,,,,,,,
1618540020.370159,36.000000,0.000000,3969.743652,4890.256348,4236.410156,4247.692383,4078.974365,0.000000,3.000000,73.000000,,,,0.000000,4.000000,0.000000,4.000000,4.000000,4.000000,66.666664,,,,,,,,18.000000,0.000000,0.733053,0.156250,0.593262,-0.293701,0.969253,0.103029,-0.246098,7.041393,6.484645,14.813007
1618540020.377976,37.000000,0.000000,3964.102539,4889.743652,4218.461426,4226.153809,4066.153809,0.000000,3.000000,73.000000,,,,0.000000,4.000000,0.000000,4.000000,4.000000,4.000000,66.666664,,,,,,,,,,,,,,,,,,,
1618540020.385792,38.000000,0.000000,3959.487061,4892.307617,4206.153809,4212.820313,4064.102539,0.000000,3.000000,73.000000,,,,0.000000,4.000000,0.000000,4.000000,4.000000,4.000000,66.666664,,,,,,,,19.000000,0.000000,0.733105,0.156006,0.593262,-0.293701,0.971695,0.090822,-0.232914,3.705378,4.520242,14.767275
1618540020.393709,39.000000,0.000000,3966.666748,4897.436035,4208.205078,4211.282227,4075.897461,0.000000,3.000000,73.000000,,,,0.000000,4.000000,0.000000,4.000000,4.000000,4.000000,66.666664,,,,,,,,,,,,,,,,,,,
1618540020.401526,40.000000,0.000000,3973.333252,4859.487305,4219.487305,4217.436035,4083.589844,0.000000,3.000000,73.000000,,,,0.000000,4.000000,0.000000,4.000000,4.000000,4.000000,66.666664,,,,,,,,20.000000,0.000000,0.733105,0.156006,0.593262,-0.293701,0.969741,0.101076,-0.242191,6.564870,2.991541,14.785932
1618540020.409342,41.000000,0.000000,3981.538574,4888.717773,4225.641113,4226.153809,4087.692383,0.000000,3.000000,73.000000,,,,0.000000,4.000000,0.000000,4.000000,4.000000,4.000000,66.666664,,,,,,,,,,,,,,,,,,,
1618540020.417159,42.000000,0.000000,3997.948730,4984.102539,4228.205078,4238.461426,4101.025879,0.000000,3.000000,73.000000,,,,0.000000,4.000000,0.000000,4.000000,4.000000,4.000000,66.666664,,,,,,,,21.000000,0.000000,0.733110,0.155518,0.593262,-0.293945,0.978531,0.104005,-0.249516,3.276507,5.264448,14.862538
1618540020.424976,43.000000,0.000000,4009.743652,4984.102539,4232.307617,4250.769043,4111.282227,0.000000,3.000000,73.000000,,,,0.000000,4.000000,0.000000,4.000000,4.000000,4.000000,66.666664,,,,,,,,,,,,,,,,,,,
1618540020.432793,44.000000,0.000000,4014.871826,4910.769043,4237.436035,4248.205078,4108.717773,0.000000,3.000000,73.000000,,,,0.000000,4.000000,0.000000,4.000000,4.000000,4.000000,66.666664,,,,,,,,22.000000,0.000000,0.733064,0.155273,0.593262,-0.294189,0.969741,0.108888,-0.244144,6.298517,7.429695,14.931484
1618540020.440610,45.000000,0.000000,4015.897461,4857.436035,4238.461426,4243.077148,4096.922852,0.000000,3.000000,73.000000,,,,0.000000,4.000000,0.000000,4.000000,4.000000,4.000000,66.666664,,,,,,,,,,,,,,,,,,,
1618540020.448426,46.000000,0.000000,4008.718018,4828.205078,4236.410156,4251.794922,4084.102539,0.000000,3.000000,73.000000,,,,0.000000,4.000000,0.000000,4.000000,4.000000,4.000000,66.666664,,,,,,,,23.000000,0.000000,0.733018,0.155029,0.593262,-0.294434,0.981949,0.104982,-0.244144,7.044418,5.310972,14.933720
1618540020.456243,47.000000,0.000000,4003.076904,4849.230957,4233.333496,4257.948730,4086.153809,0.000000,3.000000,73.000000,,,,0.000000,4.000000,0.000000,4.000000,4.000000,4.000000,66.666664,,,,,,,,,,,,,,,,,,,
1618540020.464060,48.000000,0.000000,4008.718018,4915.384766,4232.820313,4251.282227,4097.948730,0.000000,3.000000,73.000000,,,,0.000000,4.000000,0.000000,4.000000,4.000000,4.000000,66.666664,,,,,,,,24.000000,0.000000,0.732925,0.154541,0.593262,-0.294922,0.969741,0.125490,-0.250492,7.775545,3.523752,14.935732
1618540020.471977,49.000000,0.000000,4010.769287,4940.512695,4229.230957,4243.589844,4094.358887,0.000000,3.000000,73.000000,,,,0.000000,4.000000,0.000000,4.000000,4.000000,4.000000,66.666664,,,,,,,,,,,,,,,,,,,
1618540020.479793,50.000000,0.000000,4003.076904,4915.384766,4222.563965,4240.000000,4082.051270,0.000000,3.000000,73.000000,,,,0.000000,4.000000,0.000000,4.000000,4.000000,4.000000,66.666664,,,,,,,,25.000000,0.000000,0.732976,0.154297,0.593262,-0.294922,0.964858,0.121584,-0.257328,4.485745,5.743437,14.937543
1618540020.487610,51.000000,0.000000,4004.102539,4883.077148,4226.153809,4240.512695,4077.435791,0.000000,3.000000,73.000000,,,,0.000000,4.000000,0.000000,4.000000,4.000000,4.000000,66.666664,,,,,,,,,,,,,,,,,,,
1618540020.495427,52.000000,0.000000,4014.871826,4880.512695,4233.846191,4252.307617,4082.051270,0.000000,3.000000,73.000000,,,,0.000000,4.000000,0.000000,4.000000,4.000000,4.000000,66.666664,,,,,,,,26.000000,0.000000,0.732929,0.154053,0.593262,-0.295166,0.976577,0.112795,-0.247562,3.498833,3.972786,15.058804
1618540020.503244,53.000000,0.000000,4028.718018,4917.436035,4233.846191,4260.512695,4094.871826,0.000000,3.000000,73.000000,,,,0.000000,4.000000,0.000000,4.000000,4.000000,4.000000,66.666664,,,,,,,,,,,,,,,,,,,
1618540020.511061,54.000000,0.000000,4038.974365,4897.948730,4227.179688,4252.307617,4106.153809,0.000000,3.000000,73.000000,,,,0.000000,4.000000,0.000000,4.000000,4.000000,4.000000,66.666664,,,,,,,,27.000000,0.000000,0.732925,0.154541,0.593262,-0.294922,0.969741,0.125490,-0.250492,0.576889,6.207384,15.108123
1618540020.518877,55.000000,0.000000,4037.435791,4858.461426,4222.563965,4243.077148,4105.128418,0.000000,3.000000,73.000000,,,,0.000000,4.000000,0.000000,4.000000,4.000000,4.000000,66.666664,,,,,,,,,,,,,,,,,,,
1618540020.526694,56.000000,0.000000,4041.025635,4896.922852,4229.743652,4250.256348,4107.692383,0.000000,3.000000,73.000000,,,,0.000000,4.000000,0.000000,4.000000,4.000000,4.000000,66.666664,,,,,,,,28.000000,0.000000,0.732929,0.154053,0.593262,-0.295166,0.976577,0.112795,-0.247562,-0.019139,4.390338,15.212325
1618540020.534511,57.000000,0.000000,4058.974365,4915.384766,4240.000000,4258.461426,4119.487305,0.000000,3.000000,73.000000,,,,0.000000,4.000000,0.000000,4.000000,4.000000,4.000000,66.666664,,,,,,,,,,,,,,,,,,,
1618540020.542328,58.000000,0.000000,4069.230713,4875.897461,4234.358887,4257.436035,4124.615234,0.000000,3.000000,73.000000,,,,0.000000,4.000000,0.000000,4.000000,4.000000,4.000000,66.666664,,,,,,,,29.000000,0.000000,0.732929,0.154053,0.593262,-0.295166,0.974136,0.110842,-0.240726,1.238898,2.754997,15.246292
1618540020.550244,59.000000,0.000000,4069.743652,4874.358887,4229.230957,4266.666504,4122.563965,0.000000,3.000000,73.000000,,,,0.000000,4.000000,0.000000,4.000000,4.000000,4.000000,66.666664,,,,,,,,,,,,,,,,,,,
1618540020.558061,60.000000,0.000000,4070.769287,4920.000000,4241.538574,4273.846191,4120.512695,0.000000,3.000000,73.000000,,,,0.000000,4.000000,0.000000,4.000000,4.000000,4.000000,66.666664,,,,,,,,30.000000,0.000000,0.732981,0.153809,0.593262,-0.295166,0.955093,0.127932,-0.248539,-1.397237,5.051558,15.217047
1618540020.565877,61.000000,0.000000,4071.794922,4936.922852,4249.743652,4264.615234,4123.589844,0.000000,3.000000,73.000000,,,,0.000000,4.000000,0.000000,4.000000,4.000000,4.000000,66.666664,,,,,,,,,,,,,,,,,,,
1618540020.573694,62.000000,0.000000,4074.871826,4904.615234,4245.641113,4266.666504,4129.743652,0.000000,3.000000,73.000000,,,,0.000000,4.000000,0.000000,4.000000,4.000000,4.000000,66.666664,,,,,,,,31.000000,0.000000,0.733032,0.153564,0.593262,-0.295166,0.971695,0.132815,-0.250004,1.912701,3.230464,15.190726
1618540020.581510,63.000000,0.000000,4080.000000,4866.666504,4243.589844,4271.282227,4123.077148,0.000000,3.000000,73.000000,,,,0.000000,4.000000,0.000000,4.000000,4.000000,4.000000,66.666664,,,,,,,,,,,,,,,,,,,
1618540020.589327,64.000000,0.000000,4072.307617,4850.769043,4237.948730,4253.333496,4106.153809,450.000000,3.000000,73.000000,,,,0.000000,4.000000,0.000000,4.000000,4.000000,4.000000,66.666664,,,,,,,,32.000000,0.000000,0.732834,0.153564,0.593506,-0.295166,0.991226,0.119631,-0.256840,-0.970261,5.419663,15.107223
1618540020.597143,65.000000,0.000000,4057.435791,4874.358887,4225.128418,4248.717773,4096.410156,450.000000,3.000000,73.000000,,,,0.000000,4.000000,0.000000,4.000000,4.000000,4.000000,66.666664,,,,,,,,,,,,,,,,,,,
1618540020.604960,66.000000,0.000000,4058.461426,4951.794922,4219.487305,4262.051270,4097.948730,16235.000000,3.000000,73.000000,,,,0.000000,4.000000,0.000000,4.000000,4.000000,4.000000,66.666664,,,,,,,,33.000000,0.000000,0.732885,0.153320,0.593506,-0.295166,0.970718,0.120607,-0.250980,0.502519,3.561759,15.091885
1618540020.612777,67.000000,0.000000,4068.718018,4949.743652,4213.846191,4249.743652,4100.000000,450.000000,3.000000,73.000000,,,,0.000000,4.000000,0.000000,4.000000,4.000000,4.000000,66.666664,,,,,,,,,,,,,,,,,,,
1618540020.620693,68.000000,0.000000,4069.230713,4835.384766,4206.153809,4227.179688,4097.436035,0.000000,3.000000,73.000000,,,,0.000000,4.000000,0.000000,4.000000,4.000000,4.000000,66.666664,,,,,,,,34.000000,0.000000,0.733034,0.153076,0.593506,-0.294922,0.963394,0.132326,-0.245121,1.887836,1.889645,15.078080
1618540020.628510,69.000000,0.000000,4066.153809,4838.461426,4208.717773,4230.769043,4094.358887,450.000000,3.000000,73.000000,,,,0.000000,4.000000,0.000000,4.000000,4.000000,4.000000,66.666664,,,,,,,,,,,,,,,,,,,
1618540020.636326,70.000000,0.000000,4073.846191,4943.589844,4217.948730,4242.051270,4103.589844,16201.000000,3.000000,73.000000,,,,0.000000,4.000000,0.000000,4.000000,4.000000,4.000000,66.666664,,,,,,,,35.000000,0.000000,0.732935,0.153076,0.593750,-0.294678,0.963394,0.116213,-0.241703,2.895360,4.392372,15.065657
1618540020.644143,71.000000,0.000000,4081.025635,4913.333496,4221.538574,4240.000000,4112.820313,450.000000,3.000000,73.000000,,,,0.000000,4.000000,0.000000,4.000000,4.000000,4.000000,66.666664,,,,,,,,,,,,,,,,,,,
1618540020.651959,72.000000,0.000000,4082.051270,4848.717773,4223.077148,4235.897461,4108.205078,450.000000,3.000000,73.000000,,,,0.000000,4.000000,0.000000,4.000000,4.000000,4.000000,66.666664,,,,,,,,36.000000,0.000000,0.732884,0.153320,0.593750,-0.294678,0.972183,0.116213,-0.254398,3.802131,2.697012,15.054475
1618540020.659776,73.000000,0.000000,4085.641113,4923.589844,4222.563965,4241.538574,4105.641113,16097.000000,3.000000,73.000000,,,,0.000000,4.000000,0.000000,4.000000,4.000000,4.000000,66.666664,,,,,,,,,,,,,,,,,,,
1618540020.667592,74.000000,0.000000,4088.205078,4933.846191,4215.897461,4246.153809,4107.692383,450.000000,3.000000,73.000000,,,,0.000000,4.000000,0.000000,4.000000,4.000000,4.000000,66.666664,,,,,,,,37.000000,0.000000,0.732982,0.153320,0.593750,-0.294434,0.972183,0.114260,-0.245609,2.763949,5.178818,15.044412
1618540020.675409,75.000000,0.000000,4085.641113,4849.230957,4215.897461,4241.538574,4102.051270,16221.000000,3.000000,73.000000,,,,0.000000,4.000000,0.000000,4.000000,4.000000,4.000000,66.666664,,,,,,,,,,,,,,,,,,,
1618540020.683326,76.000000,0.000000,4085.128174,4890.256348,4223.589844,4233.846191,4096.922852,450.000000,3.000000,73.000000,,,,0.000000,4.000000,0.000000,4.000000,4.000000,4.000000,66.666664,,,,,,,,38.000000,0.000000,0.733080,0.153320,0.593750,-0.294189,0.972183,0.118166,-0.240726,3.863307,3.404813,14.975539
1618540020.691142,77.000000,0.000000,4085.641113,4975.384766,4223.077148,4228.717773,4100.000000,450.000000,3.000000,73.000000,,,,0.000000,4.000000,0.000000,4.000000,4.000000,4.000000,66.666664,,,,,,,,,,,,,,,,,,,
1618540020.698959,78.000000,0.000000,4084.102539,4944.102539,4216.410156,4228.205078,4099.487305,450.000000,3.000000,73.000000,,,,0.000000,4.000000,0.000000,4.000000,4.000000,4.000000,66.666664,,,,,,,,39.000000,0.000000,0.732831,0.153564,0.593994,-0.294189,0.971695,0.112306,-0.250980,4.733099,5.696208,14.913554
1618540020.706776,79.000000,0.000000,4083.589844,4864.102539,4222.563965,4230.769043,4098.974121,16221.000000,3.000000,73.000000,,,,0.000000,4.000000,0.000000,4.000000,4.000000,4.000000,66.666664,,,,,,,,,,,,,,,,,,,
1618540020.714593,80.000000,0.000000,4084.615479,4856.922852,4235.384766,4232.307617,4108.205078,450.000000,3.000000,73.000000,,,,0.000000,4.000000,0.000000,4.000000,4.000000,4.000000,66.666664,,,,,,,,40.000000,0.000000,0.732878,0.153809,0.593994,-0.293945,0.965835,0.121584,-0.237797,5.695358,7.758463,14.977398
1618540020.722410,81.000000,0.000000,4083.589844,4904.615234,4230.769043,4235.384766,4113.846191,450.000000,3.000000,73.000000,,,,0.000000,4.000000,0.000000,4.000000,4.000000,4.000000,66.666664,,,,,,,,,,,,,,,,,,,
1618540020.730226,82.000000,0.000000,4082.051270,4902.563965,4218.461426,4244.102539,4109.743652,450.000000,3.000000,73.000000,,,,0.000000,4.000000,0.000000,4.000000,4.000000,4.000000,66.666664,,,,,,,,41.000000,0.000000,0.732976,0.153809,0.593994,-0.293701,0.955093,0.115724,-0.241703,6.441761,5.726494,14.975042
1618540020.738043,83.000000,0.000000,4085.641113,4831.282227,4220.000000,4247.179688,4105.128418,16221.000000,3.000000,73.000000,,,,0.000000,4.000000,0.000000,4.000000,4.000000,4.000000,66.666664,,,,,,,,,,,,,,,,,,,
1618540020.745860,84.000000,0.000000,4085.128174,4850.769043,4218.461426,4241.538574,4100.000000,450.000000,3.000000,73.000000,,,,0.000000,4.000000,0.000000,4.000000,4.000000,4.000000,66.666664,,,,,,,,42.000000,0.000000,0.732925,0.154053,0.593994,-0.293701,0.974136,0.098146,-0.239261,7.173338,7.725905,15.092553
1618540020.753776,85.000000,0.000000,4083.589844,4959.487305,4204.615234,4234.358887,4098.461426,450.000000,3.000000,73.000000,,,,0.000000,4.000000,0.000000,4.000000,4.000000,4.000000,66.666664,,,,,,,,,,,,,,,,,,,
1618540020.761591,86.000000,0.000000,4091.281982,4911.282227,4205.128418,4231.282227,4106.666504,450.000000,3.000000,73.000000,,,,0.000000,4.000000,0.000000,4.000000,4.000000,4.000000,66.666664,,,,,,,,43.000000,0.000000,0.733022,0.154053,0.593994,-0.293457,0.963394,0.102541,-0.242679,7.592496,9.704822,15.078682
1618540020.769407,87.000000,0.000000,4101.025879,4823.589844,4221.025879,4234.358887,4114.358887,16221.000000,3.000000,73.000000,,,,0.000000,4.000000,0.000000,4.000000,4.000000,4.000000,66.666664,,,,,,,,,,,,,,,,,,,
1618540020.777324,88.000000,0.000000,4100.000000,4894.358887,4224.615234,4234.358887,4111.794922,450.000000,3.000000,73.000000,,,,0.000000,4.000000,0.000000,4.000000,4.000000,4.000000,66.666664,1.000000,16.666666,1.000000,0.000000,4.000000,4.000000,1.000000,44.000000,0.000000,0.733022,0.154053,0.593994,-0.293457,0.977066,0.107912,-0.245121,4.081739,11.306400,15.006383
1618540020.785140,89.000000,0.000000,4095.897461,4974.871582,4214.871582,4228.205078,4105.641113,450.000000,3.000000,73.000000,,,,0.000000,4.000000,0.000000,4.000000,4.000000,4.000000,66.666664,,,,,,,,,,,,,,,,,,,
1618540020.792956,90.000000,0.000000,4097.948730,4942.563965,4210.769043,4231.794922,4102.563965,450.000000,3.000000,73.000000,,,,0.000000,4.000000,0.000000,4.000000,4.000000,4.000000,66.666664,,,,,,,,45.000000,0.000000,0.732922,0.154053,0.594238,-0.293213,0.972671,0.102052,-0.241215,4.869873,12.747821,14.941313
1618540020.800772,91.000000,0.000000,4096.410156,4877.948730,4213.846191,4237.948730,4102.563965,16221.000000,3.000000,73.000000,,,,0.000000,4.000000,0.000000,4.000000,4.000000,4.000000,66.666664,,,,,,,,,,,,,,,,,,,
1618540020.808589,92.000000,0.000000,4100.000000,4870.256348,4207.179688,4233.846191,4112.307617,450.000000,3.000000,73.000000,,,,0.000000,4.000000,0.000000,4.000000,4.000000,4.000000,66.666664,,,,,,,,46.000000,0.000000,0.732922,0.154053,0.594238,-0.293213,0.970230,0.100587,-0.247562,1.751009,14.104915,15.002381
1618540020.816405,93.000000,0.000000,4113.333496,4914.358887,4194.871582,4231.282227,4119.487305,450.000000,3.000000,73.000000,,,,0.000000,4.000000,0.000000,4.000000,4.000000,4.000000,66.666664,,,,,,,,,,,,,,,,,,,
1618540020.824221,94.000000,0.000000,4111.794922,4947.179688,4192.820313,4227.179688,4109.230957,450.000000,3.000000,73.000000,,,,0.000000,4.000000,0.000000,4.000000,4.000000,4.000000,66.666664,,,,,,,,47.000000,0.000000,0.732922,0.154053,0.594238,-0.293213,0.963882,0.109377,-0.236332,3.071293,11.378486,14.877896
