title:S34, start timestamp:1618540468.871155, stop timestamp:1618540579.454391, headset type:INSIGHT, headset serial:A2D202F3, headset firmware:932, channels:40, sampling rate:eeg_128;mot_64, samples:14153     , version:2.1, 
Timestamp,EEG.Counter,EEG.Interpolated,EEG.AF3,EEG.T7,EEG.Pz,EEG.T8,EEG.AF4,EEG.RawCq,EEG.Battery,EEG.BatteryPercent,MarkerIndex,MarkerType,MarkerValueInt,EEG.MarkerHardware,CQ.AF3,CQ.T7,CQ.Pz,CQ.T8,CQ.AF4,CQ.Overall,EQ.SampleRateQuality,EQ.OVERALL,EQ.AF3,EQ.T7,EQ.Pz,EQ.T8,EQ.AF4,MOT.CounterMems,MOT.InterpolatedMems,MOT.Q0,MOT.Q1,MOT.Q2,MOT.Q3,MOT.AccX,MOT.AccY,MOT.AccZ,MOT.MagX,MOT.MagY,MOT.MagZ
1618540468.871155,79.000000,0.000000,4216.922852,4880.512695,4177.948730,4083.589844,4155.384766,16196.000000,3.000000,73.000000,,,,0.000000,4.000000,1.000000,4.000000,4.000000,4.000000,75.000000,,,,,,,,,,,,,,,,,,,
1618540468.879070,80.000000,0.000000,4220.512695,4929.743652,4183.077148,4085.641113,4150.256348,450.000000,3.000000,73.000000,,,,0.000000,4.000000,1.000000,4.000000,4.000000,4.000000,75.000000,,,,,,,,40.000000,0.000000,0.744030,0.078125,0.613770,-0.252197,0.962417,0.191897,-0.240726,3.448902,-0.844305,13.913739
1618540468.886886,81.000000,0.000000,4231.282227,4980.512695,4181.538574,4086.153809,4166.153809,450.000000,3.000000,73.000000,,,,0.000000,4.000000,1.000000,4.000000,4.000000,4.000000,75.000000,,,,,,,,,,,,,,,,,,,
1618540468.894702,82.000000,0.000000,4230.769043,4969.743652,4175.897461,4097.948730,4176.922852,450.000000,3.000000,73.000000,,,,0.000000,4.000000,1.000000,4.000000,4.000000,4.000000,75.000000,,,,,,,,41.000000,0.000000,0.744231,0.078125,0.613525,-0.252197,0.955581,0.191409,-0.227543,6.274226,-2.075813,13.957934
1618540468.902518,83.000000,0.000000,4213.846191,4958.974121,4166.666504,4105.641113,4171.282227,16196.000000,3.000000,73.000000,,,,0.000000,4.000000,1.000000,4.000000,4.000000,4.000000,75.000000,,,,,,,,,,,,,,,,,,,
1618540468.910334,84.000000,0.000000,4204.615234,4957.436035,4166.666504,4086.153809,4161.025879,450.000000,3.000000,73.000000,,,,0.000000,4.000000,1.000000,4.000000,4.000000,4.000000,75.000000,,,,,,,,42.000000,0.000000,0.744030,0.078125,0.613770,-0.252197,0.962417,0.195804,-0.238285,6.902926,0.644014,13.997709
1618540468.918150,85.000000,0.000000,4203.077148,4889.743652,4178.461426,4075.384521,4146.153809,450.000000,3.000000,73.000000,,,,0.000000,4.000000,1.000000,4.000000,4.000000,4.000000,75.000000,,,,,,,,,,,,,,,,,,,
1618540468.925965,86.000000,0.000000,4200.512695,4885.128418,4175.897461,4092.820557,4133.846191,450.000000,3.000000,73.000000,,,,0.000000,4.000000,1.000000,4.000000,4.000000,4.000000,75.000000,,,,,,,,43.000000,0.000000,0.744030,0.078125,0.613770,-0.252197,0.962905,0.194339,-0.230472,7.289310,-0.796141,14.033507
1618540468.933781,87.000000,0.000000,4207.179688,4978.974121,4154.871582,4101.025879,4141.538574,16196.000000,3.000000,73.000000,,,,0.000000,4.000000,1.000000,4.000000,4.000000,4.000000,75.000000,,,,,,,,,,,,,,,,,,,
1618540468.941697,88.000000,0.000000,4216.922852,4980.000000,4150.256348,4084.102539,4155.384766,450.000000,3.000000,73.000000,,,,0.000000,4.000000,1.000000,4.000000,4.000000,4.000000,75.000000,1.000000,66.666664,4.000000,1.000000,4.000000,3.000000,4.000000,44.000000,0.000000,0.744138,0.077881,0.613770,-0.251953,0.963394,0.186038,-0.237308,7.756687,1.616272,14.065725
1618540468.949513,89.000000,0.000000,4216.410156,4921.025879,4168.717773,4069.743652,4147.179688,450.000000,3.000000,73.000000,,,,0.000000,4.000000,1.000000,4.000000,4.000000,4.000000,75.000000,,,,,,,,,,,,,,,,,,,
1618540468.957329,90.000000,0.000000,4213.333496,4940.000000,4178.461426,4081.025635,4139.487305,450.000000,3.000000,73.000000,,,,0.000000,4.000000,1.000000,4.000000,4.000000,4.000000,75.000000,,,,,,,,45.000000,0.000000,0.744138,0.077881,0.613770,-0.251953,0.961929,0.194827,-0.238285,8.117510,-0.040739,14.034906
1618540468.965144,91.000000,0.000000,4216.922852,4953.846191,4170.256348,4103.589844,4153.846191,16196.000000,3.000000,73.000000,,,,0.000000,4.000000,1.000000,4.000000,4.000000,4.000000,75.000000,,,,,,,,,,,,,,,,,,,
1618540468.972960,92.000000,0.000000,4220.000000,4937.948730,4162.563965,4100.512695,4164.615234,450.000000,3.000000,73.000000,,,,0.000000,4.000000,1.000000,4.000000,4.000000,4.000000,75.000000,,,,,,,,46.000000,0.000000,0.744030,0.078125,0.613770,-0.252197,0.962905,0.194339,-0.230472,4.554252,2.475580,14.066984
1618540468.980776,93.000000,0.000000,4213.846191,4993.846191,4164.615234,4076.923096,4153.333496,450.000000,3.000000,73.000000,,,,0.000000,4.000000,1.000000,4.000000,4.000000,4.000000,75.000000,,,,,,,,,,,,,,,,,,,
1618540468.988592,94.000000,0.000000,4206.666504,4975.384766,4173.333496,4071.281982,4135.897461,450.000000,3.000000,73.000000,,,,0.000000,4.000000,1.000000,4.000000,4.000000,4.000000,75.000000,,,,,,,,47.000000,0.000000,0.744138,0.077881,0.613770,-0.251953,0.961929,0.194827,-0.238285,5.235319,0.732638,14.036039
1618540468.996408,95.000000,0.000000,4204.102539,4869.230957,4170.256348,4093.333252,4135.384766,16196.000000,3.000000,73.000000,,,,0.000000,4.000000,1.000000,4.000000,4.000000,4.000000,75.000000,,,,,,,,,,,,,,,,,,,
1618540469.004324,96.000000,0.000000,4199.487305,4918.974121,4148.205078,4115.384766,4146.666504,450.000000,3.000000,73.000000,,,,0.000000,4.000000,1.000000,4.000000,4.000000,4.000000,75.000000,,,,,,,,48.000000,0.000000,0.744339,0.077881,0.613525,-0.251953,0.960952,0.184085,-0.241703,7.822186,-0.836010,14.008189
1618540469.012139,97.000000,0.000000,4190.769043,5034.871582,4134.358887,4105.128418,4147.179688,450.000000,3.000000,73.000000,,,,0.000000,4.000000,1.000000,4.000000,4.000000,4.000000,75.000000,,,,,,,,,,,,,,,,,,,
1618540469.019955,98.000000,0.000000,4191.794922,4987.692383,4147.179688,4081.025635,4136.410156,450.000000,3.000000,73.000000,,,,0.000000,4.000000,1.000000,4.000000,4.000000,4.000000,75.000000,,,,,,,,49.000000,0.000000,0.744112,0.078125,0.613770,-0.251953,0.960464,0.196292,-0.231937,8.236275,1.700021,13.863493
1618540469.027771,99.000000,0.000000,4201.025879,4881.538574,4163.077148,4080.512939,4136.410156,16196.000000,3.000000,73.000000,,,,0.000000,4.000000,1.000000,4.000000,4.000000,4.000000,75.000000,,,,,,,,,,,,,,,,,,,
1618540469.035587,100.000000,0.000000,4207.179688,4927.179688,4154.358887,4096.922852,4143.589844,450.000000,3.000000,73.000000,,,,0.000000,4.000000,1.000000,4.000000,4.000000,4.000000,75.000000,,,,,,,,50.000000,0.000000,0.744169,0.078369,0.613770,-0.251709,0.970718,0.175784,-0.236820,8.489324,0.154266,13.912712
1618540469.043403,101.000000,0.000000,4208.717773,5036.922852,4142.051270,4116.922852,4150.256348,450.000000,3.000000,73.000000,,,,0.000000,4.000000,1.000000,4.000000,4.000000,4.000000,75.000000,,,,,,,,,,,,,,,,,,,
1618540469.051219,102.000000,0.000000,4208.717773,4994.871582,4147.179688,4121.025879,4161.025879,450.000000,3.000000,73.000000,,,,0.000000,4.000000,1.000000,4.000000,4.000000,4.000000,75.000000,,,,,,,,51.000000,0.000000,0.744169,0.078369,0.613770,-0.251709,0.956558,0.197757,-0.243168,6.743161,2.591269,13.897194
1618540469.059034,103.000000,0.000000,4206.666504,4885.128418,4155.897461,4097.436035,4153.846191,16196.000000,3.000000,73.000000,,,,0.000000,4.000000,1.000000,4.000000,4.000000,4.000000,75.000000,,,,,,,,,,,,,,,,,,,
1618540469.066750,104.000000,0.000000,4205.641113,4910.769043,4162.563965,4100.000000,4136.410156,450.000000,3.000000,73.000000,,,,0.000000,4.000000,1.000000,4.000000,4.000000,4.000000,75.000000,,,,,,,,52.000000,0.000000,0.744371,0.078369,0.613525,-0.251709,0.959487,0.184573,-0.238773,9.179244,1.016204,13.943044
1618540469.074566,105.000000,0.000000,4205.641113,4983.589844,4157.948730,4133.846191,4137.436035,450.000000,3.000000,73.000000,,,,0.000000,4.000000,1.000000,4.000000,4.000000,4.000000,75.000000,,,,,,,,,,,,,,,,,,,
1618540469.082382,106.000000,0.000000,4197.436035,4983.077148,4140.512695,4132.307617,4142.051270,450.000000,3.000000,73.000000,,,,0.000000,4.000000,1.000000,4.000000,4.000000,4.000000,75.000000,,,,,,,,53.000000,0.000000,0.744345,0.078613,0.613525,-0.251709,0.973648,0.184085,-0.222171,9.457626,-0.401354,14.044124
1618540469.090198,107.000000,0.000000,4189.743652,4946.153809,4136.922852,4103.589844,4135.384766,16196.000000,3.000000,73.000000,,,,0.000000,4.000000,1.000000,4.000000,4.000000,4.000000,75.000000,,,,,,,,,,,,,,,,,,,
1618540469.098014,108.000000,0.000000,4194.358887,4919.487305,4153.333496,4108.717773,4130.769043,450.000000,3.000000,73.000000,,,,0.000000,4.000000,1.000000,4.000000,4.000000,4.000000,75.000000,,,,,,,,54.000000,0.000000,0.744427,0.078613,0.613525,-0.251465,0.966812,0.188479,-0.222171,9.588541,-1.916418,14.075280
1618540469.105830,109.000000,0.000000,4202.051270,4933.333496,4156.410156,4137.436035,4132.820313,450.000000,3.000000,73.000000,,,,0.000000,4.000000,1.000000,4.000000,4.000000,4.000000,75.000000,,,,,,,,,,,,,,,,,,,
1618540469.113645,110.000000,0.000000,4201.538574,4946.153809,4137.948730,4140.000000,4138.461426,450.000000,3.000000,73.000000,,,,0.000000,4.000000,1.000000,4.000000,4.000000,4.000000,75.000000,,,,,,,,55.000000,0.000000,0.744427,0.078613,0.613525,-0.251465,0.971206,0.186526,-0.239261,9.706363,0.608023,14.043506
1618540469.121561,111.000000,0.000000,4200.512695,4937.948730,4134.871582,4123.589844,4143.589844,16196.000000,3.000000,73.000000,,,,0.000000,4.000000,1.000000,4.000000,4.000000,4.000000,75.000000,,,,,,,,,,,,,,,,,,,
1618540469.129377,112.000000,0.000000,4208.717773,4946.666504,4157.436035,4119.487305,4140.512695,450.000000,3.000000,73.000000,,,,0.000000,4.000000,1.000000,4.000000,4.000000,4.000000,75.000000,,,,,,,,56.000000,0.000000,0.744453,0.078369,0.613525,-0.251465,0.959487,0.195804,-0.235355,5.864589,2.880020,13.955092
1618540469.137193,113.000000,0.000000,4216.922852,4945.128418,4166.666504,4128.717773,4140.512695,450.000000,3.000000,73.000000,,,,0.000000,4.000000,1.000000,4.000000,4.000000,4.000000,75.000000,,,,,,,,,,,,,,,,,,,
1618540469.145009,114.000000,0.000000,4214.871582,4905.641113,4148.717773,4132.307617,4150.769043,450.000000,3.000000,73.000000,,,,0.000000,4.000000,1.000000,4.000000,4.000000,4.000000,75.000000,,,,,,,,57.000000,0.000000,0.744453,0.078369,0.613525,-0.251465,0.965835,0.176272,-0.233890,6.294991,1.096634,13.935337
1618540469.152824,115.000000,0.000000,4212.307617,4932.820313,4131.282227,4138.461426,4163.589844,16196.000000,3.000000,73.000000,,,,0.000000,4.000000,1.000000,4.000000,4.000000,4.000000,75.000000,,,,,,,,,,,,,,,,,,,
1618540469.160640,116.000000,0.000000,4214.358887,4993.333496,4130.769043,4152.820313,4164.102539,450.000000,3.000000,73.000000,,,,0.000000,4.000000,1.000000,4.000000,4.000000,4.000000,75.000000,,,,,,,,58.000000,0.000000,0.744453,0.078369,0.613525,-0.251465,0.950210,0.181643,-0.234379,2.973801,3.379585,13.917557
1618540469.168456,117.000000,0.000000,4216.410156,4974.871582,4145.128418,4144.615234,4155.897461,450.000000,3.000000,73.000000,,,,0.000000,4.000000,1.000000,4.000000,4.000000,4.000000,75.000000,,,,,,,,,,,,,,,,,,,
1618540469.176272,118.000000,0.000000,4220.512695,4939.487305,4171.794922,4136.410156,4155.897461,450.000000,3.000000,73.000000,,,,0.000000,4.000000,1.000000,4.000000,4.000000,4.000000,75.000000,,,,,,,,59.000000,0.000000,0.744427,0.078613,0.613525,-0.251465,0.959976,0.186526,-0.232914,3.753098,1.725688,13.901554
1618540469.184088,119.000000,0.000000,4230.256348,4916.922852,4188.717773,4158.461426,4164.102539,16196.000000,3.000000,73.000000,,,,0.000000,4.000000,1.000000,4.000000,4.000000,4.000000,75.000000,,,,,,,,,,,,,,,,,,,
1618540469.191904,120.000000,0.000000,4238.461426,4890.256348,4173.846191,4174.871582,4175.897461,450.000000,3.000000,73.000000,,,,0.000000,4.000000,1.000000,4.000000,4.000000,4.000000,75.000000,,,,,,,,60.000000,0.000000,0.744427,0.078613,0.613525,-0.251465,0.959976,0.193851,-0.234379,2.600188,0.237181,13.887153
1618540469.199620,121.000000,0.000000,4236.922852,4951.794922,4150.769043,4165.128418,4183.077148,450.000000,3.000000,73.000000,,,,0.000000,4.000000,1.000000,4.000000,4.000000,4.000000,75.000000,,,,,,,,,,,,,,,,,,,
1618540469.207435,122.000000,0.000000,4220.512695,5018.974121,4149.743652,4155.384766,4173.333496,450.000000,3.000000,73.000000,,,,0.000000,4.000000,1.000000,4.000000,4.000000,4.000000,75.000000,,,,,,,,61.000000,0.000000,0.744427,0.078613,0.613525,-0.251465,0.958999,0.182620,-0.224125,3.536476,-1.042659,13.874190
1618540469.215251,123.000000,0.000000,4209.743652,4932.307617,4162.051270,4148.717773,4156.922852,16196.000000,3.000000,73.000000,,,,0.000000,4.000000,1.000000,4.000000,4.000000,4.000000,75.000000,,,,,,,,,,,,,,,,,,,
1618540469.223067,124.000000,0.000000,4221.538574,4883.077148,4168.717773,4147.692383,4156.922852,450.000000,3.000000,73.000000,,,,0.000000,4.000000,1.000000,4.000000,4.000000,4.000000,75.000000,,,,,,,,62.000000,0.000000,0.744628,0.078613,0.613281,-0.251465,0.964858,0.172854,-0.237308,4.199690,-2.254332,14.101787
1618540469.230883,125.000000,0.000000,4231.794922,4969.743652,4164.615234,4177.436035,4169.230957,450.000000,3.000000,73.000000,,,,0.000000,4.000000,1.000000,4.000000,4.000000,4.000000,75.000000,,,,,,,,,,,,,,,,,,,
1618540469.238699,126.000000,0.000000,4225.128418,4991.794922,4154.358887,4207.179688,4178.461426,450.000000,3.000000,73.000000,,,,0.000000,4.000000,1.000000,4.000000,4.000000,4.000000,75.000000,,,,,,,,63.000000,0.000000,0.744628,0.078613,0.613281,-0.251465,0.969253,0.192386,-0.235843,4.916213,-3.524282,14.007545
1618540469.246515,127.000000,0.000000,4218.461426,4942.051270,4145.641113,4209.743652,4184.615234,238.000000,3.000000,73.000000,,,,0.000000,4.000000,1.000000,4.000000,4.000000,4.000000,75.000000,,,,,,,,,,,,,,,,,,,
1618540469.254330,0.000000,0.000000,4224.102539,4953.846191,4145.128418,4201.538574,4192.820313,450.000000,3.000000,73.000000,,,,0.000000,4.000000,1.000000,4.000000,4.000000,4.000000,75.000000,,,,,,,,0.000000,0.000000,0.744685,0.078857,0.613281,-0.251221,0.960952,0.187015,-0.238285,7.415360,-0.719424,14.161991
1618540469.262246,1.000000,0.000000,4232.820313,5005.641113,4154.358887,4205.128418,4199.487305,450.000000,3.000000,73.000000,,,,0.000000,4.000000,1.000000,4.000000,4.000000,4.000000,75.000000,,,,,,,,,,,,,,,,,,,
1618540469.270062,2.000000,0.000000,4235.897461,4988.205078,4164.615234,4207.692383,4197.948730,16211.000000,3.000000,73.000000,,,,0.000000,4.000000,1.000000,4.000000,4.000000,4.000000,75.000000,,,,,,,,1.000000,0.000000,0.744685,0.078857,0.613281,-0.251221,0.956069,0.189944,-0.235843,7.750501,1.685317,14.181360
1618540469.277879,3.000000,0.000000,4231.794922,4922.051270,4173.846191,4198.974121,4193.846191,450.000000,3.000000,73.000000,,,,0.000000,4.000000,1.000000,4.000000,4.000000,4.000000,75.000000,,,,,,,,,,,,,,,,,,,
1618540469.285695,4.000000,0.000000,4231.794922,4883.077148,4186.666504,4202.051270,4195.897461,156.000000,3.000000,73.000000,,,,0.000000,4.000000,1.000000,4.000000,4.000000,4.000000,75.000000,,,,,,,,2.000000,0.000000,0.744685,0.078857,0.613281,-0.251221,0.973159,0.185061,-0.235843,9.966219,0.021402,14.079163
1618540469.293511,5.000000,0.000000,4244.615234,4905.641113,4192.307617,4217.948730,4198.974121,450.000000,3.000000,73.000000,,,,0.000000,4.000000,1.000000,4.000000,4.000000,4.000000,75.000000,,,,,,,,,,,,,,,,,,,
1618540469.301327,6.000000,0.000000,4247.692383,4939.487305,4183.077148,4238.461426,4196.922852,16201.000000,3.000000,73.000000,,,,0.000000,4.000000,1.000000,4.000000,4.000000,4.000000,75.000000,,,,,,,,3.000000,0.000000,0.744685,0.078857,0.613281,-0.251221,0.962417,0.186038,-0.233402,11.960365,2.471691,14.226446
1618540469.309143,7.000000,0.000000,4238.974121,4930.256348,4170.769043,4273.333496,4200.000000,450.000000,3.000000,73.000000,,,,0.000000,4.000000,1.000000,4.000000,4.000000,4.000000,75.000000,,,,,,,,,,,,,,,,,,,
1618540469.316959,8.000000,0.000000,4241.025879,4941.025879,4166.666504,4309.743652,4208.717773,450.000000,3.000000,73.000000,,,,0.000000,4.000000,1.000000,4.000000,4.000000,4.000000,75.000000,,,,,,,,4.000000,0.000000,0.744659,0.079102,0.613281,-0.251221,0.967300,0.181155,-0.239261,13.755097,0.729138,14.179555
1618540469.324775,9.000000,0.000000,4246.666504,4969.230957,4171.282227,4324.615234,4213.846191,16075.000000,3.000000,73.000000,,,,0.000000,4.000000,1.000000,4.000000,4.000000,4.000000,75.000000,,,,,,,,,,,,,,,,,,,
1618540469.332591,10.000000,0.000000,4242.563965,4930.769043,4175.384766,4330.769043,4215.384766,450.000000,3.000000,73.000000,,,,0.000000,4.000000,1.000000,4.000000,4.000000,4.000000,75.000000,,,,,,,,5.000000,0.000000,0.744659,0.079102,0.613281,-0.251221,0.964370,0.169436,-0.232425,15.370356,-0.779344,14.077538
1618540469.340407,11.000000,0.000000,4242.563965,4937.436035,4179.487305,4343.077148,4217.948730,16214.000000,3.000000,73.000000,,,,0.000000,4.000000,1.000000,4.000000,4.000000,4.000000,75.000000,,,,,,,,,,,,,,,,,,,
1618540469.348123,12.000000,0.000000,4255.897461,5021.538574,4186.666504,4353.333496,4222.563965,450.000000,3.000000,73.000000,,,,0.000000,4.000000,1.000000,4.000000,4.000000,4.000000,75.000000,,,,,,,,6.000000,0.000000,0.744659,0.079102,0.613281,-0.251221,0.964858,0.183108,-0.243168,14.969812,-2.136979,14.224983
1618540469.355939,13.000000,0.000000,4270.256348,5006.666504,4190.256348,4357.436035,4231.794922,450.000000,3.000000,73.000000,,,,0.000000,4.000000,1.000000,4.000000,4.000000,4.000000,75.000000,,,,,,,,,,,,,,,,,,,
1618540469.363755,14.000000,0.000000,4285.641113,4971.282227,4189.743652,4362.051270,4251.794922,450.000000,3.000000,73.000000,,,,0.000000,4.000000,1.000000,4.000000,4.000000,4.000000,75.000000,,,,,,,,7.000000,0.000000,0.744741,0.079102,0.613281,-0.250977,0.959976,0.184573,-0.244633,10.781139,0.409518,14.178238
1618540469.371571,15.000000,0.000000,4300.512695,4961.025879,4189.743652,4370.769043,4267.179688,16214.000000,3.000000,73.000000,,,,0.000000,4.000000,1.000000,4.000000,4.000000,4.000000,75.000000,,,,,,,,,,,,,,,,,,,
1618540469.379386,16.000000,0.000000,4304.615234,4909.743652,4187.692383,4366.153809,4265.128418,0.000000,3.000000,73.000000,,,,0.000000,4.000000,1.000000,4.000000,4.000000,4.000000,75.000000,,,,,,,,8.000000,0.000000,0.744968,0.078857,0.613037,-0.250977,0.960952,0.195315,-0.230472,10.899333,-1.126818,14.136168
1618540469.387202,17.000000,0.000000,4303.077148,4930.256348,4187.692383,4352.820313,4263.077148,0.000000,3.000000,73.000000,,,,0.000000,4.000000,1.000000,4.000000,4.000000,4.000000,75.000000,,,,,,,,,,,,,,,,,,,
1618540469.395018,18.000000,0.000000,4301.025879,5001.538574,4195.384766,4359.487305,4268.205078,0.000000,3.000000,73.000000,,,,0.000000,4.000000,1.000000,4.000000,4.000000,4.000000,75.000000,,,,,,,,9.000000,0.000000,0.744968,0.078857,0.613037,-0.250977,0.951675,0.186038,-0.247074,10.886076,-2.629151,14.158120
1618540469.402834,19.000000,0.000000,4295.384766,5003.589844,4204.102539,4381.538574,4266.153809,0.000000,3.000000,73.000000,,,,0.000000,4.000000,1.000000,4.000000,4.000000,4.000000,75.000000,,,,,,,,,,,,,,,,,,,
1618540469.410650,20.000000,0.000000,4294.358887,4955.384766,4210.769043,4392.307617,4265.128418,0.000000,3.000000,73.000000,,,,0.000000,4.000000,1.000000,4.000000,4.000000,4.000000,75.000000,,,,,,,,10.000000,0.000000,0.744968,0.078857,0.613037,-0.250977,0.966323,0.192386,-0.232425,8.900238,0.086194,14.118061
1618540469.418566,21.000000,0.000000,4300.000000,4956.922852,4213.846191,4387.179688,4275.897461,0.000000,3.000000,73.000000,,,,0.000000,4.000000,1.000000,4.000000,4.000000,4.000000,75.000000,,,,,,,,,,,,,,,,,,,
1618540469.426381,22.000000,0.000000,4302.563965,4998.461426,4212.307617,4390.256348,4276.922852,0.000000,3.000000,73.000000,,,,0.000000,4.000000,1.000000,4.000000,4.000000,4.000000,75.000000,,,,,,,,11.000000,0.000000,0.744942,0.079102,0.613037,-0.250977,0.943862,0.179690,-0.230961,7.232615,-1.357994,14.141824
1618540469.434197,23.000000,0.000000,4297.948730,4970.769043,4212.820313,4399.487305,4266.666504,0.000000,3.000000,73.000000,,,,0.000000,4.000000,1.000000,4.000000,4.000000,4.000000,75.000000,,,,,,,,,,,,,,,,,,,
1618540469.442013,24.000000,0.000000,4293.333496,4934.358887,4218.974121,4398.461426,4264.615234,0.000000,3.000000,73.000000,,,,0.000000,4.000000,1.000000,4.000000,4.000000,4.000000,75.000000,1.000000,66.666664,4.000000,1.000000,4.000000,3.000000,4.000000,12.000000,0.000000,0.744942,0.079102,0.613037,-0.250977,0.956069,0.182132,-0.247074,3.817662,-2.657763,14.163210
1618540469.449829,25.000000,0.000000,4294.871582,4989.230957,4220.512695,4389.743652,4268.205078,0.000000,3.000000,73.000000,,,,0.000000,4.000000,1.000000,4.000000,4.000000,4.000000,75.000000,,,,,,,,,,,,,,,,,,,
1618540469.457645,26.000000,0.000000,4298.974121,5025.128418,4210.256348,4386.153809,4266.153809,0.000000,3.000000,73.000000,,,,0.000000,4.000000,1.000000,4.000000,4.000000,4.000000,75.000000,,,,,,,,13.000000,0.000000,0.744968,0.078857,0.613037,-0.250977,0.966323,0.192386,-0.232425,0.744204,0.060443,14.182458
1618540469.465461,27.000000,0.000000,4289.743652,4930.256348,4198.461426,4386.153809,4262.051270,0.000000,3.000000,73.000000,,,,0.000000,4.000000,1.000000,4.000000,4.000000,4.000000,75.000000,,,,,,,,,,,,,,,,,,,
1618540469.473276,28.000000,0.000000,4280.512695,4882.051270,4194.358887,4376.410156,4267.179688,0.000000,3.000000,73.000000,,,,0.000000,4.000000,1.000000,4.000000,4.000000,4.000000,75.000000,,,,,,,,14.000000,0.000000,0.744942,0.079102,0.613037,-0.250977,0.956069,0.182132,-0.247074,-2.021908,-1.381170,14.199781
1618540469.481092,29.000000,0.000000,4283.077148,4986.666504,4193.846191,4369.230957,4275.897461,0.000000,3.000000,73.000000,,,,0.000000,4.000000,1.000000,4.000000,4.000000,4.000000,75.000000,,,,,,,,,,,,,,,,,,,
1618540469.489008,30.000000,0.000000,4279.487305,5026.666504,4195.384766,4373.333496,4274.358887,0.000000,3.000000,73.000000,,,,0.000000,4.000000,1.000000,4.000000,4.000000,4.000000,75.000000,,,,,,,,15.000000,0.000000,0.744942,0.079102,0.613037,-0.250977,0.961440,0.183108,-0.236332,1.290682,-2.738437,14.155557
1618540469.496824,31.000000,0.000000,4273.333496,4931.794922,4199.487305,4378.974121,4269.743652,0.000000,3.000000,73.000000,,,,0.000000,4.000000,1.000000,4.000000,4.000000,4.000000,75.000000,,,,,,,,,,,,,,,,,,,
1618540469.504640,32.000000,0.000000,4281.025879,4914.871582,4206.666504,4386.153809,4275.384766,0.000000,3.000000,73.000000,,,,0.000000,4.000000,1.000000,4.000000,4.000000,4.000000,75.000000,,,,,,,,16.000000,0.000000,0.744942,0.079102,0.613037,-0.250977,0.964370,0.175784,-0.228519,2.298106,-0.131794,14.175570
1618540469.512456,33.000000,0.000000,4292.307617,5002.051270,4206.153809,4390.769043,4282.563965,0.000000,3.000000,73.000000,,,,0.000000,4.000000,1.000000,4.000000,4.000000,4.000000,75.000000,,,,,,,,,,,,,,,,,,,
1618540469.520271,34.000000,0.000000,4297.948730,4995.384766,4196.410156,4380.512695,4280.512695,0.000000,3.000000,73.000000,,,,0.000000,4.000000,1.000000,4.000000,4.000000,4.000000,75.000000,,,,,,,,17.000000,0.000000,0.744942,0.079102,0.613037,-0.250977,0.966323,0.184573,-0.240726,5.118879,-1.494368,14.133766
1618540469.528087,35.000000,0.000000,4296.410156,4917.948730,4186.666504,4366.153809,4276.922852,0.000000,3.000000,73.000000,,,,0.000000,4.000000,1.000000,4.000000,4.000000,4.000000,75.000000,,,,,,,,,,,,,,,,,,,
1618540469.535903,36.000000,0.000000,4285.128418,4922.563965,4176.410156,4367.692383,4267.692383,0.000000,3.000000,73.000000,,,,0.000000,4.000000,1.000000,4.000000,4.000000,4.000000,75.000000,,,,,,,,18.000000,0.000000,0.745025,0.079102,0.613037,-0.250732,0.961929,0.195315,-0.235355,5.922929,-2.780500,14.155958
1618540469.543719,37.000000,0.000000,4276.922852,4975.384766,4170.256348,4374.358887,4255.897461,0.000000,3.000000,73.000000,,,,0.000000,4.000000,1.000000,4.000000,4.000000,4.000000,75.000000,,,,,,,,,,,,,,,,,,,
1618540469.551535,38.000000,0.000000,4282.051270,4966.666504,4175.384766,4365.128418,4260.000000,0.000000,3.000000,73.000000,,,,0.000000,4.000000,1.000000,4.000000,4.000000,4.000000,75.000000,,,,,,,,19.000000,0.000000,0.744999,0.079346,0.613037,-0.250732,0.971695,0.180667,-0.235355,6.646574,-3.997834,14.175931
1618540469.559450,39.000000,0.000000,4284.102539,4948.205078,4193.333496,4356.922852,4269.743652,0.000000,3.000000,73.000000,,,,0.000000,4.000000,1.000000,4.000000,4.000000,4.000000,75.000000,,,,,,,,,,,,,,,,,,,
1618540469.567266,40.000000,0.000000,4278.461426,4960.000000,4210.256348,4365.128418,4271.282227,0.000000,3.000000,73.000000,,,,0.000000,4.000000,1.000000,4.000000,4.000000,4.000000,75.000000,,,,,,,,20.000000,0.000000,0.744999,0.079346,0.613037,-0.250732,0.961929,0.190921,-0.245609,7.058593,-1.085806,14.253722
1618540469.575082,41.000000,0.000000,4276.410156,4965.641113,4208.205078,4366.666504,4266.666504,0.000000,3.000000,73.000000,,,,0.000000,4.000000,1.000000,4.000000,4.000000,4.000000,75.000000,,,,,,,,,,,,,,,,,,,
1618540469.582898,42.000000,0.000000,4277.436035,4958.461426,4197.948730,4360.512695,4260.512695,0.000000,3.000000,73.000000,,,,0.000000,4.000000,1.000000,4.000000,4.000000,4.000000,75.000000,,,,,,,,21.000000,0.000000,0.744999,0.079346,0.613037,-0.250732,0.953140,0.188968,-0.224613,5.455503,-2.352978,14.144288
1618540469.590714,43.000000,0.000000,4274.871582,4944.615234,4189.230957,4367.692383,4257.436035,0.000000,3.000000,73.000000,,,,0.000000,4.000000,1.000000,4.000000,4.000000,4.000000,75.000000,,,,,,,,,,,,,,,,,,,
1618540469.598530,44.000000,0.000000,4278.974121,4938.974121,4183.077148,4377.948730,4266.666504,0.000000,3.000000,73.000000,,,,0.000000,4.000000,1.000000,4.000000,4.000000,4.000000,75.000000,,,,,,,,22.000000,0.000000,0.744973,0.079590,0.613037,-0.250732,0.957046,0.199710,-0.238285,6.106260,-3.553249,14.165428
1618540469.606345,45.000000,0.000000,4283.589844,4966.666504,4174.871582,4370.256348,4275.384766,0.000000,3.000000,73.000000,,,,0.000000,4.000000,1.000000,4.000000,4.000000,4.000000,75.000000,,,,,,,,,,,,,,,,,,,
1618540469.614161,46.000000,0.000000,4275.384766,5005.641113,4163.589844,4354.871582,4268.717773,0.000000,3.000000,73.000000,,,,0.000000,4.000000,1.000000,4.000000,4.000000,4.000000,75.000000,,,,,,,,23.000000,0.000000,0.744973,0.079590,0.613037,-0.250732,0.952163,0.179202,-0.239750,2.923574,-0.685679,14.244269
1618540469.621977,47.000000,0.000000,4270.769043,4997.948730,4167.692383,4357.948730,4263.589844,0.000000,3.000000,73.000000,,,,0.000000,4.000000,1.000000,4.000000,4.000000,4.000000,75.000000,,,,,,,,,,,,,,,,,,,
1618540469.629893,48.000000,0.000000,4270.256348,4946.153809,4178.974121,4367.179688,4262.563965,0.000000,3.000000,73.000000,,,,0.000000,4.000000,1.000000,4.000000,4.000000,4.000000,75.000000,,,,,,,,24.000000,0.000000,0.744973,0.079590,0.613037,-0.250732,0.971206,0.188968,-0.236332,5.681800,-2.112495,14.255411
1618540469.637709,49.000000,0.000000,4249.743652,4914.871582,4174.358887,4355.897461,4245.128418,0.000000,3.000000,73.000000,,,,0.000000,4.000000,1.000000,4.000000,4.000000,4.000000,75.000000,,,,,,,,,,,,,,,,,,,
1618540469.645525,50.000000,0.000000,4226.153809,4962.051270,4169.743652,4336.410156,4226.153809,0.000000,3.000000,73.000000,,,,0.000000,4.000000,1.000000,4.000000,4.000000,4.000000,75.000000,,,,,,,,25.000000,0.000000,0.745055,0.079590,0.613037,-0.250488,0.963882,0.178225,-0.235355,6.309927,0.670815,14.205624
1618540469.653340,51.000000,0.000000,4233.333496,5009.230957,4178.974121,4334.871582,4231.794922,0.000000,3.000000,73.000000,,,,0.000000,4.000000,1.000000,4.000000,4.000000,4.000000,75.000000,,,,,,,,,,,,,,,,,,,
1618540469.661156,52.000000,0.000000,4249.230957,4978.461426,4184.615234,4342.051270,4240.512695,0.000000,3.000000,73.000000,,,,0.000000,4.000000,1.000000,4.000000,4.000000,4.000000,75.000000,,,,,,,,26.000000,0.000000,0.745055,0.079590,0.613037,-0.250488,0.970718,0.181643,-0.244144,6.755611,-0.831835,14.280445
1618540469.668972,53.000000,0.000000,4258.461426,4940.512695,4179.487305,4344.615234,4241.538574,0.000000,3.000000,73.000000,,,,0.000000,4.000000,1.000000,4.000000,4.000000,4.000000,75.000000,,,,,,,,,,,,,,,,,,,
1618540469.676788,54.000000,0.000000,4276.922852,4962.051270,4181.538574,4355.897461,4261.025879,0.000000,3.000000,73.000000,,,,0.000000,4.000000,1.000000,4.000000,4.000000,4.000000,75.000000,,,,,,,,27.000000,0.000000,0.745055,0.079590,0.613037,-0.250488,0.964858,0.194339,-0.240238,7.336173,1.643963,14.168339
1618540469.684604,55.000000,0.000000,4292.307617,4979.487305,4189.230957,4367.179688,4283.589844,0.000000,3.000000,73.000000,,,,0.000000,4.000000,1.000000,4.000000,4.000000,4.000000,75.000000,,,,,,,,,,,,,,,,,,,
1618540469.692420,56.000000,0.000000,4289.230957,4931.794922,4189.230957,4359.487305,4280.512695,0.000000,3.000000,73.000000,,,,0.000000,4.000000,1.000000,4.000000,4.000000,4.000000,75.000000,,,,,,,,28.000000,0.000000,0.745256,0.079590,0.612793,-0.250488,0.957534,0.169924,-0.237308,7.798863,3.931997,14.187074
1618540469.700335,57.000000,0.000000,4278.461426,4913.333496,4184.102539,4357.436035,4266.153809,0.000000,3.000000,73.000000,,,,0.000000,4.000000,1.000000,4.000000,4.000000,4.000000,75.000000,,,,,,,,,,,,,,,,,,,
1618540469.708151,58.000000,0.000000,4270.769043,4961.025879,4188.205078,4361.025879,4265.128418,0.000000,3.000000,73.000000,,,,0.000000,4.000000,1.000000,4.000000,4.000000,4.000000,75.000000,,,,,,,,29.000000,0.000000,0.745256,0.079590,0.612793,-0.250488,0.964370,0.183597,-0.243656,8.215283,2.043413,14.144119
1618540469.715967,59.000000,0.000000,4272.820313,4988.205078,4201.538574,4359.487305,4268.205078,0.000000,3.000000,73.000000,,,,0.000000,4.000000,1.000000,4.000000,4.000000,4.000000,75.000000,,,,,,,,,,,,,,,,,,,
1618540469.723783,60.000000,0.000000,4277.948730,4940.512695,4206.153809,4374.358887,4265.128418,0.000000,3.000000,73.000000,,,,0.000000,4.000000,1.000000,4.000000,4.000000,4.000000,75.000000,,,,,,,,30.000000,0.000000,0.745055,0.079590,0.613037,-0.250488,0.968765,0.182132,-0.234379,8.530248,4.171871,14.105461
1618540469.731599,61.000000,0.000000,4274.358887,4935.384766,4198.461426,4387.179688,4264.102539,0.000000,3.000000,73.000000,,,,0.000000,4.000000,1.000000,4.000000,4.000000,4.000000,75.000000,,,,,,,,,,,,,,,,,,,
1618540469.739415,62.000000,0.000000,4274.871582,4953.333496,4191.282227,4378.974121,4268.205078,0.000000,3.000000,73.000000,,,,0.000000,4.000000,1.000000,4.000000,4.000000,4.000000,75.000000,,,,,,,,31.000000,0.000000,0.745029,0.079834,0.613037,-0.250488,0.968765,0.177249,-0.247562,8.813715,2.199484,14.130484
1618540469.747230,63.000000,0.000000,4285.128418,4915.384766,4190.769043,4367.179688,4272.307617,0.000000,3.000000,73.000000,,,,0.000000,4.000000,1.000000,4.000000,4.000000,4.000000,75.000000,,,,,,,,,,,,,,,,,,,
1618540469.755046,64.000000,0.000000,4286.666504,4946.153809,4184.102539,4354.358887,4275.384766,450.000000,3.000000,73.000000,,,,0.000000,4.000000,1.000000,4.000000,4.000000,4.000000,75.000000,,,,,,,,32.000000,0.000000,0.745029,0.079834,0.613037,-0.250488,0.969253,0.183597,-0.233402,5.240652,4.192704,14.093189
1618540469.762962,65.000000,0.000000,4274.358887,5014.358887,4168.717773,4352.820313,4272.820313,450.000000,3.000000,73.000000,,,,0.000000,4.000000,1.000000,4.000000,4.000000,4.000000,75.000000,,,,,,,,,,,,,,,,,,,
1618540469.770777,66.000000,0.000000,4272.820313,4981.025879,4163.589844,4371.282227,4270.769043,16205.000000,3.000000,73.000000,,,,0.000000,4.000000,1.000000,4.000000,4.000000,4.000000,75.000000,,,,,,,,33.000000,0.000000,0.744801,0.080078,0.613281,-0.250488,0.958022,0.181643,-0.227543,5.853078,6.166049,14.059624
1618540469.778593,67.000000,0.000000,4277.948730,4911.794922,4171.282227,4370.256348,4273.846191,450.000000,3.000000,73.000000,,,,0.000000,4.000000,1.000000,4.000000,4.000000,4.000000,75.000000,,,,,,,,,,,,,,,,,,,
1618540469.786309,68.000000,0.000000,4265.641113,4918.974121,4176.410156,4335.897461,4266.666504,243.000000,3.000000,73.000000,,,,0.000000,4.000000,2.000000,4.000000,4.000000,4.000000,83.333336,,,,,,,,34.000000,0.000000,0.744801,0.080078,0.613281,-0.250488,0.964858,0.186526,-0.249516,6.344447,4.113875,14.268676
1618540469.794125,69.000000,0.000000,4255.384766,4953.846191,4176.922852,4306.666504,4253.333496,450.000000,3.000000,73.000000,,,,0.000000,4.000000,2.000000,4.000000,4.000000,4.000000,83.333336,,,,,,,,,,,,,,,,,,,
1618540469.801940,70.000000,0.000000,4264.102539,4960.512695,4187.692383,4296.922852,4256.922852,16162.000000,3.000000,73.000000,,,,0.000000,4.000000,2.000000,4.000000,4.000000,4.000000,83.333336,,,,,,,,35.000000,0.000000,0.744884,0.080078,0.613281,-0.250244,0.948745,0.190433,-0.232914,6.906310,2.207103,14.217562
1618540469.809756,71.000000,0.000000,4269.230957,4937.436035,4196.410156,4285.641113,4263.589844,450.000000,3.000000,73.000000,,,,0.000000,4.000000,2.000000,4.000000,4.000000,4.000000,83.333336,,,,,,,,,,,,,,,,,,,
1618540469.817572,72.000000,0.000000,4256.410156,4929.230957,4187.692383,4258.461426,4254.358887,450.000000,3.000000,73.000000,,,,0.000000,4.000000,2.000000,4.000000,4.000000,4.000000,83.333336,,,,,,,,36.000000,0.000000,0.744965,0.080078,0.613281,-0.250000,0.958999,0.186526,-0.246098,7.411986,4.379007,14.291190
1618540469.825388,73.000000,0.000000,4248.205078,4971.282227,4181.025879,4209.230957,4254.358887,16073.000000,3.000000,73.000000,,,,0.000000,4.000000,2.000000,4.000000,4.000000,4.000000,83.333336,,,,,,,,,,,,,,,,,,,
1618540469.833204,74.000000,0.000000,4256.410156,4957.436035,4184.615234,4158.461426,4266.153809,450.000000,3.000000,73.000000,,,,0.000000,4.000000,2.000000,4.000000,4.000000,4.000000,83.333336,,,,,,,,37.000000,0.000000,0.744965,0.080078,0.613281,-0.250000,0.959487,0.183108,-0.227054,9.721371,2.505538,14.357455
1618540469.841020,75.000000,0.000000,4265.641113,4926.666504,4179.487305,4136.922852,4265.641113,16225.000000,3.000000,73.000000,,,,0.000000,4.000000,2.000000,4.000000,4.000000,4.000000,83.333336,,,,,,,,,,,,,,,,,,,
1618540469.848935,76.000000,0.000000,4271.282227,4927.692383,4173.333496,4138.461426,4260.000000,450.000000,3.000000,73.000000,,,,0.000000,4.000000,2.000000,4.000000,4.000000,4.000000,83.333336,,,,,,,,38.000000,0.000000,0.744965,0.080078,0.613281,-0.250000,0.945815,0.173831,-0.234379,9.825911,0.879231,14.297462
1618540469.856751,77.000000,0.000000,4275.384766,4923.077148,4183.077148,4129.230957,4262.051270,450.000000,3.000000,73.000000,,,,0.000000,4.000000,2.000000,4.000000,4.000000,4.000000,83.333336,,,,,,,,,,,,,,,,,,,
1618540469.864566,78.000000,0.000000,4278.974121,4908.717773,4197.436035,4116.410156,4267.692383,450.000000,3.000000,73.000000,,,,0.000000,4.000000,2.000000,4.000000,4.000000,4.000000,83.333336,,,,,,,,39.000000,0.000000,0.744965,0.080078,0.613281,-0.250000,0.972183,0.166018,-0.231449,6.091813,3.183922,14.243470
1618540469.872382,79.000000,0.000000,4278.974121,4910.256348,4199.487305,4124.615234,4268.717773,16225.000000,3.000000,73.000000,,,,0.000000,4.000000,2.000000,4.000000,4.000000,4.000000,83.333336,,,,,,,,,,,,,,,,,,,
1618540469.880198,80.000000,0.000000,4272.307617,4941.025879,4195.897461,4131.794922,4257.948730,450.000000,3.000000,73.000000,,,,0.000000,4.000000,2.000000,4.000000,4.000000,4.000000,83.333336,,,,,,,,40.000000,0.000000,0.744992,0.079834,0.613281,-0.250000,0.980972,0.181155,-0.242191,8.593031,1.250515,14.194877
1618540469.888013,81.000000,0.000000,4269.230957,4909.743652,4194.871582,4118.974121,4242.563965,450.000000,3.000000,73.000000,,,,0.000000,4.000000,2.000000,4.000000,4.000000,4.000000,83.333336,,,,,,,,,,,,,,,,,,,
1618540469.895929,82.000000,0.000000,4269.743652,4870.256348,4196.922852,4103.589844,4233.333496,450.000000,3.000000,73.000000,,,,0.000000,4.000000,2.000000,4.000000,4.000000,4.000000,83.333336,,,,,,,,41.000000,0.000000,0.744910,0.079834,0.613281,-0.250244,0.965835,0.160647,-0.227543,8.810404,-0.250290,14.151142
1618540469.903745,83.000000,0.000000,4269.230957,4920.000000,4197.948730,4101.538574,4230.769043,16225.000000,3.000000,73.000000,,,,0.000000,4.000000,2.000000,4.000000,4.000000,4.000000,83.333336,,,,,,,,,,,,,,,,,,,
1618540469.911561,84.000000,0.000000,4265.128418,4935.384766,4194.358887,4112.820313,4230.256348,450.000000,3.000000,73.000000,,,,0.000000,4.000000,2.000000,4.000000,4.000000,4.000000,83.333336,,,,,,,,42.000000,0.000000,0.744828,0.079834,0.613281,-0.250488,0.968765,0.187503,-0.242191,9.006041,-1.840276,14.111781
1618540469.919376,85.000000,0.000000,4271.794922,4872.820313,4190.769043,4122.563965,4231.282227,450.000000,3.000000,73.000000,,,,0.000000,4.000000,2.000000,4.000000,4.000000,4.000000,83.333336,,,,,,,,,,,,,,,,,,,
1618540469.927192,86.000000,0.000000,4286.666504,4904.615234,4182.563965,4122.051270,4234.358887,450.000000,3.000000,73.000000,,,,0.000000,4.000000,2.000000,4.000000,4.000000,4.000000,83.333336,,,,,,,,43.000000,0.000000,0.744828,0.079834,0.613281,-0.250488,0.973648,0.187015,-0.241703,9.301744,-3.032001,13.956726
1618540469.935008,87.000000,0.000000,4283.589844,4970.256348,4165.641113,4113.333496,4238.461426,16225.000000,3.000000,73.000000,,,,0.000000,4.000000,2.000000,4.000000,4.000000,4.000000,83.333336,,,,,,,,,,,,,,,,,,,
1618540469.942824,88.000000,0.000000,4274.358887,4928.717773,4162.051270,4106.666504,4242.051270,450.000000,3.000000,73.000000,,,,0.000000,4.000000,2.000000,4.000000,4.000000,4.000000,83.333336,1.000000,66.666664,4.000000,1.000000,4.000000,3.000000,4.000000,44.000000,0.000000,0.744910,0.079834,0.613281,-0.250244,0.965835,0.160647,-0.227543,5.620062,-0.396002,14.176068
1618540469.950640,89.000000,0.000000,4283.077148,4932.820313,4171.282227,4105.128418,4240.512695,450.000000,3.000000,73.000000,,,,0.000000,4.000000,2.000000,4.000000,4.000000,4.000000,83.333336,,,,,,,,,,,,,,,,,,,
1618540469.958456,90.000000,0.000000,4288.205078,4965.641113,4168.205078,4103.589844,4233.333496,450.000000,3.000000,73.000000,,,,0.000000,4.000000,2.000000,4.000000,4.000000,4.000000,83.333336,,,,,,,,45.000000,0.000000,0.744828,0.079834,0.613281,-0.250488,0.973648,0.187015,-0.241703,6.254364,-1.732155,14.014584
1618540469.966371,91.000000,0.000000,4276.410156,4939.487305,4163.077148,4088.718018,4228.205078,16225.000000,3.000000,73.000000,,,,0.000000,4.000000,2.000000,4.000000,4.000000,4.000000,83.333336,,,,,,,,,,,,,,,,,,,
1618540469.974187,92.000000,0.000000,4274.871582,4935.897461,4165.128418,4069.230713,4228.717773,450.000000,3.000000,73.000000,,,,0.000000,4.000000,2.000000,4.000000,4.000000,4.000000,83.333336,,,,,,,,46.000000,0.000000,0.744828,0.079834,0.613281,-0.250488,0.956069,0.193362,-0.230961,8.679511,-3.054324,14.048695
1618540469.982003,93.000000,0.000000,4274.358887,4987.179688,4161.538574,4080.000000,4225.128418,450.000000,3.000000,73.000000,,,,0.000000,4.000000,2.000000,4.000000,4.000000,4.000000,83.333336,,,,,,,,,,,,,,,,,,,
1618540469.989819,94.000000,0.000000,4265.128418,5002.563965,4158.461426,4096.410156,4220.000000,450.000000,3.000000,73.000000,,,,0.000000,4.000000,2.000000,4.000000,4.000000,4.000000,83.333336,,,,,,,,47.000000,0.000000,0.744828,0.079834,0.613281,-0.250488,0.959487,0.187503,-0.224125,5.119868,-0.475908,14.139209
1618540469.997635,95.000000,0.000000,4269.230957,4932.820313,4162.563965,4090.256348,4227.692383,16225.000000,3.000000,73.000000,,,,0.000000,4.000000,2.000000,4.000000,4.000000,4.000000,83.333336,,,,,,,,,,,,,,,,,,,
1618540470.005451,96.000000,0.000000,4275.384766,4916.410156,4167.179688,4093.333252,4233.333496,450.000000,3.000000,73.000000,,,,0.000000,4.000000,2.000000,4.000000,4.000000,4.000000,83.333336,,,,,,,,48.000000,0.000000,0.744854,0.079590,0.613281,-0.250488,0.963394,0.182620,-0.240726,1.916190,2.024113,14.160857
1618540470.013266,97.000000,0.000000,4269.230957,4970.256348,4167.179688,4108.205078,4224.102539,450.000000,3.000000,73.000000,,,,0.000000,4.000000,2.000000,4.000000,4.000000,4.000000,83.333336,,,,,,,,,,,,,,,,,,,
1618540470.021082,98.000000,0.000000,4264.102539,4988.205078,4171.794922,4105.128418,4213.846191,450.000000,3.000000,73.000000,,,,0.000000,4.000000,2.000000,4.000000,4.000000,4.000000,83.333336,,,,,,,,49.000000,0.000000,0.745055,0.079590,0.613037,-0.250488,0.960464,0.171878,-0.228519,4.775155,0.266502,14.120524
1618540470.028898,99.000000,0.000000,4265.128418,4949.743652,4175.384766,4088.718018,4210.256348,16225.000000,3.000000,73.000000,,,,0.000000,4.000000,2.000000,4.000000,4.000000,4.000000,83.333336,,,,,,,,,,,,,,,,,,,
1618540470.036614,100.000000,0.000000,4259.487305,4918.461426,4173.846191,4072.820557,4209.230957,450.000000,3.000000,73.000000,,,,0.000000,4.000000,2.000000,4.000000,4.000000,4.000000,83.333336,,,,,,,,50.000000,0.000000,0.744854,0.079590,0.613281,-0.250488,0.968277,0.189456,-0.238773,3.639670,-1.135901,14.144041
1618540470.044430,101.000000,0.000000,4257.436035,4948.205078,4178.974121,4072.307617,4209.230957,450.000000,3.000000,73.000000,,,,0.000000,4.000000,2.000000,4.000000,4.000000,4.000000,83.333336,,,,,,,,,,,,,,,,,,,
1618540470.052246,102.000000,0.000000,4264.102539,4957.948730,4186.666504,4097.436035,4212.820313,450.000000,3.000000,73.000000,,,,0.000000,4.000000,2.000000,4.000000,4.000000,4.000000,83.333336,,,,,,,,51.000000,0.000000,0.744854,0.079590,0.613281,-0.250488,0.969741,0.181643,-0.236820,6.326287,-2.338249,14.344652
1618540470.060062,103.000000,0.000000,4270.769043,4940.000000,4190.769043,4117.948730,4213.846191,16225.000000,3.000000,73.000000,,,,0.000000,4.000000,2.000000,4.000000,4.000000,4.000000,83.333336,,,,,,,,,,,,,,,,,,,
1618540470.067877,104.000000,0.000000,4276.410156,4903.589844,4193.846191,4117.436035,4214.358887,450.000000,3.000000,73.000000,,,,0.000000,4.000000,2.000000,4.000000,4.000000,4.000000,83.333336,,,,,,,,52.000000,0.000000,0.744854,0.079590,0.613281,-0.250488,0.961440,0.188479,-0.247074,6.830150,-3.539993,14.345756
1618540470.075693,105.000000,0.000000,4282.051270,4903.589844,4198.974121,4115.384766,4215.384766,450.000000,3.000000,73.000000,,,,0.000000,4.000000,2.000000,4.000000,4.000000,4.000000,83.333336,,,,,,,,,,,,,,,,,,,
1618540470.083509,106.000000,0.000000,4280.512695,4960.000000,4199.487305,4106.666504,4211.282227,450.000000,3.000000,73.000000,,,,0.000000,4.000000,2.000000,4.000000,4.000000,4.000000,83.333336,,,,,,,,53.000000,0.000000,0.745055,0.079590,0.613037,-0.250488,0.968765,0.181155,-0.241215,7.223812,-4.681378,14.227118
1618540470.091325,107.000000,0.000000,4273.333496,4912.820313,4192.820313,4101.025879,4209.743652,16225.000000,3.000000,73.000000,,,,0.000000,4.000000,2.000000,4.000000,4.000000,4.000000,83.333336,,,,,,,,,,,,,,,,,,,
1618540470.099241,108.000000,0.000000,4270.256348,4870.256348,4180.512695,4110.769043,4212.820313,450.000000,3.000000,73.000000,,,,0.000000,4.000000,2.000000,4.000000,4.000000,4.000000,83.333336,,,,,,,,54.000000,0.000000,0.744973,0.079590,0.613037,-0.250732,0.967788,0.190921,-0.235355,7.637922,-1.820626,14.180160
1618540470.107056,109.000000,0.000000,4265.641113,4954.358887,4166.153809,4123.077148,4209.230957,450.000000,3.000000,73.000000,,,,0.000000,4.000000,2.000000,4.000000,4.000000,4.000000,83.333336,,,,,,,,,,,,,,,,,,,
1618540470.114872,110.000000,0.000000,4259.487305,4963.077148,4158.974121,4118.461426,4205.128418,450.000000,3.000000,73.000000,,,,0.000000,4.000000,2.000000,4.000000,4.000000,4.000000,83.333336,,,,,,,,55.000000,0.000000,0.745029,0.079834,0.613037,-0.250488,0.959487,0.166506,-0.236820,8.010622,-3.193763,14.137897
1618540470.122688,111.000000,0.000000,4264.102539,4906.666504,4162.563965,4107.179688,4210.256348,16225.000000,3.000000,73.000000,,,,0.000000,4.000000,2.000000,4.000000,4.000000,4.000000,83.333336,,,,,,,,,,,,,,,,,,,
1618540470.130504,112.000000,0.000000,4279.487305,4965.641113,4170.769043,4114.358887,4221.025879,450.000000,3.000000,73.000000,,,,0.000000,4.000000,2.000000,4.000000,4.000000,4.000000,83.333336,,,,,,,,56.000000,0.000000,0.744801,0.080078,0.613281,-0.250488,0.959976,0.180667,-0.241215,10.140512,-4.250140,14.279306
1618540470.138320,113.000000,0.000000,4286.666504,4991.282227,4177.948730,4132.307617,4234.358887,450.000000,3.000000,73.000000,,,,0.000000,4.000000,2.000000,4.000000,4.000000,4.000000,83.333336,,,,,,,,,,,,,,,,,,,
1618540470.146136,114.000000,0.000000,4282.051270,4929.230957,4180.512695,4135.384766,4237.948730,450.000000,3.000000,73.000000,,,,0.000000,4.000000,2.000000,4.000000,4.000000,4.000000,83.333336,,,,,,,,57.000000,0.000000,0.744801,0.080078,0.613281,-0.250488,0.967300,0.188479,-0.240726,8.289046,-5.320510,14.346760
1618540470.153951,115.000000,0.000000,4278.461426,4959.487305,4179.487305,4126.153809,4230.769043,16225.000000,3.000000,73.000000,,,,0.000000,4.000000,2.000000,4.000000,4.000000,4.000000,83.333336,,,,,,,,,,,,,,,,,,,
1618540470.161767,116.000000,0.000000,4274.358887,4999.487305,4183.589844,4123.589844,4225.128418,450.000000,3.000000,73.000000,,,,0.000000,4.000000,2.000000,4.000000,4.000000,4.000000,83.333336,,,,,,,,58.000000,0.000000,0.744801,0.080078,0.613281,-0.250488,0.955093,0.171389,-0.234379,6.682542,-6.224028,14.347653
1618540470.169683,117.000000,0.000000,4270.769043,4935.897461,4190.256348,4117.436035,4222.563965,450.000000,3.000000,73.000000,,,,0.000000,4.000000,2.000000,4.000000,4.000000,4.000000,83.333336,,,,,,,,,,,,,,,,,,,
1618540470.177499,118.000000,0.000000,4272.307617,4933.333496,4186.153809,4107.692383,4223.077148,450.000000,3.000000,73.000000,,,,0.000000,4.000000,2.000000,4.000000,4.000000,4.000000,83.333336,,,,,,,,59.000000,0.000000,0.744775,0.080322,0.613281,-0.250488,0.963394,0.180179,-0.235355,5.236688,-7.037194,14.288641
1618540470.185315,119.000000,0.000000,4275.897461,4990.769043,4176.410156,4121.538574,4229.743652,16225.000000,3.000000,73.000000,,,,0.000000,4.000000,2.000000,4.000000,4.000000,4.000000,83.333336,,,,,,,,,,,,,,,,,,,
1618540470.193131,120.000000,0.000000,4278.461426,4942.051270,4169.230957,4118.461426,4232.820313,450.000000,3.000000,73.000000,,,,0.000000,4.000000,2.000000,4.000000,4.000000,4.000000,83.333336,,,,,,,,60.000000,0.000000,0.744884,0.080078,0.613281,-0.250244,0.956069,0.188968,-0.232914,5.909327,-3.881044,14.235531
1618540470.200948,121.000000,0.000000,4278.461426,4917.436035,4170.256348,4095.384521,4229.743652,450.000000,3.000000,73.000000,,,,0.000000,4.000000,2.000000,4.000000,4.000000,4.000000,83.333336,,,,,,,,,,,,,,,,,,,
1618540470.208764,122.000000,0.000000,4268.717773,4990.769043,4173.846191,4109.230957,4226.666504,450.000000,3.000000,73.000000,,,,0.000000,4.000000,2.000000,4.000000,4.000000,4.000000,83.333336,,,,,,,,61.000000,0.000000,0.744884,0.080078,0.613281,-0.250244,0.966323,0.186526,-0.248051,2.746333,-1.219956,14.307362
1618540470.216580,123.000000,0.000000,4255.384766,4968.205078,4166.153809,4136.922852,4215.897461,16225.000000,3.000000,73.000000,,,,0.000000,4.000000,2.000000,4.000000,4.000000,4.000000,83.333336,,,,,,,,,,,,,,,,,,,
1618540470.224396,124.000000,0.000000,4257.436035,4894.358887,4165.128418,4128.717773,4213.333496,450.000000,3.000000,73.000000,,,,0.000000,4.000000,2.000000,4.000000,4.000000,4.000000,83.333336,,,,,,,,62.000000,0.000000,0.744884,0.080078,0.613281,-0.250244,0.962417,0.189456,-0.232914,5.462468,-2.473714,14.312194
1618540470.232212,125.000000,0.000000,4260.512695,4932.307617,4173.846191,4113.846191,4217.948730,450.000000,3.000000,73.000000,,,,0.000000,4.000000,2.000000,4.000000,4.000000,4.000000,83.333336,,,,,,,,,,,,,,,,,,,
1618540470.240028,126.000000,0.000000,4252.307617,4970.256348,4174.871582,4119.487305,4213.333496,450.000000,3.000000,73.000000,,,,0.000000,4.000000,2.000000,4.000000,4.000000,4.000000,83.333336,,,,,,,,63.000000,0.000000,0.744682,0.080078,0.613525,-0.250244,0.950210,0.184573,-0.234379,2.224530,0.166272,14.376359
1618540470.247944,127.000000,0.000000,4256.922852,4925.641113,4180.000000,4129.230957,4218.974121,238.000000,3.000000,73.000000,,,,0.000000,4.000000,2.000000,4.000000,4.000000,4.000000,83.333336,,,,,,,,,,,,,,,,,,,
1618540470.255760,0.000000,0.000000,4275.897461,4923.589844,4195.384766,4137.948730,4240.512695,450.000000,3.000000,73.000000,,,,0.000000,4.000000,2.000000,4.000000,4.000000,4.000000,83.333336,,,,,,,,0.000000,0.000000,0.744682,0.080078,0.613525,-0.250244,0.959487,0.180667,-0.245609,3.198384,-1.285924,14.314476
1618540470.263575,1.000000,0.000000,4283.077148,4986.666504,4189.743652,4144.102539,4244.102539,450.000000,3.000000,73.000000,,,,0.000000,4.000000,2.000000,4.000000,4.000000,4.000000,83.333336,,,,,,,,,,,,,,,,,,,
1618540470.271391,2.000000,0.000000,4282.563965,4993.333496,4169.230957,4138.974121,4234.871582,16214.000000,3.000000,73.000000,,,,0.000000,4.000000,2.000000,4.000000,4.000000,4.000000,83.333336,,,,,,,,1.000000,0.000000,0.744682,0.080078,0.613525,-0.250244,0.962417,0.186038,-0.243656,5.929130,1.235283,14.318598
1618540470.279207,3.000000,0.000000,4282.563965,4940.000000,4165.641113,4122.563965,4237.436035,450.000000,3.000000,73.000000,,,,0.000000,4.000000,2.000000,4.000000,4.000000,4.000000,83.333336,,,,,,,,,,,,,,,,,,,
1618540470.287023,4.000000,0.000000,4271.282227,4958.461426,4164.615234,4118.974121,4235.384766,190.000000,3.000000,73.000000,,,,0.000000,4.000000,2.000000,4.000000,4.000000,4.000000,83.333336,,,,,,,,2.000000,0.000000,0.744682,0.080078,0.613525,-0.250244,0.964370,0.187991,-0.235843,8.446615,-0.263998,14.262491
1618540470.294839,5.000000,0.000000,4261.025879,5003.077148,4156.410156,4146.666504,4228.205078,450.000000,3.000000,73.000000,,,,0.000000,4.000000,2.000000,4.000000,4.000000,4.000000,83.333336,,,,,,,,,,,,,,,,,,,
1618540470.302655,6.000000,0.000000,4263.077148,4946.153809,4158.461426,4166.153809,4225.641113,16186.000000,3.000000,73.000000,,,,0.000000,4.000000,2.000000,4.000000,4.000000,4.000000,83.333336,,,,,,,,3.000000,0.000000,0.744682,0.080078,0.613525,-0.250244,0.962417,0.184573,-0.254887,10.592722,-1.673167,14.331626
1618540470.310470,7.000000,0.000000,4261.025879,4900.512695,4163.589844,4149.230957,4218.974121,450.000000,3.000000,73.000000,,,,0.000000,4.000000,2.000000,4.000000,4.000000,4.000000,83.333336,,,,,,,,,,,,,,,,,,,
1618540470.318286,8.000000,0.000000,4252.307617,4928.205078,4170.256348,4142.051270,4208.205078,450.000000,3.000000,73.000000,,,,0.000000,4.000000,2.000000,4.000000,4.000000,4.000000,83.333336,,,,,,,,4.000000,0.000000,0.744884,0.080078,0.613281,-0.250244,0.961440,0.190921,-0.236820,6.841759,0.826949,14.154586
1618540470.326002,9.000000,0.000000,4245.641113,4931.794922,4187.692383,4166.153809,4195.897461,16058.000000,3.000000,73.000000,,,,0.000000,4.000000,2.000000,4.000000,4.000000,4.000000,83.333336,,,,,,,,,,,,,,,,,,,
1618540470.333818,10.000000,0.000000,4242.563965,4915.897461,4208.205078,4169.230957,4191.282227,450.000000,3.000000,73.000000,,,,0.000000,4.000000,2.000000,4.000000,4.000000,4.000000,83.333336,,,,,,,,5.000000,0.000000,0.744857,0.080322,0.613281,-0.250244,0.978531,0.173831,-0.241703,7.353890,-0.810946,14.174697
1618540470.341634,11.000000,0.000000,4251.282227,4905.641113,4221.025879,4151.282227,4202.563965,16212.000000,3.000000,73.000000,,,,0.000000,4.000000,2.000000,4.000000,4.000000,4.000000,83.333336,,,,,,,,,,,,,,,,,,,
1618540470.349450,12.000000,0.000000,4262.051270,4874.871582,4226.153809,4160.512695,4213.333496,450.000000,3.000000,73.000000,,,,0.000000,4.000000,2.000000,4.000000,4.000000,4.000000,83.333336,,,,,,,,6.000000,0.000000,0.744857,0.080322,0.613281,-0.250244,0.957534,0.179202,-0.225589,9.609269,-2.165420,14.252611
1618540470.357266,13.000000,0.000000,4257.436035,4907.692383,4221.025879,4170.256348,4209.743652,450.000000,3.000000,73.000000,,,,0.000000,4.000000,2.000000,4.000000,4.000000,4.000000,83.333336,,,,,,,,,,,,,,,,,,,
1618540470.365081,14.000000,0.000000,4260.000000,4959.487305,4212.820313,4151.282227,4212.307617,450.000000,3.000000,73.000000,,,,0.000000,4.000000,2.000000,4.000000,4.000000,4.000000,83.333336,,,,,,,,7.000000,0.000000,0.744857,0.080322,0.613281,-0.250244,0.950698,0.191897,-0.229984,9.725019,0.563367,14.322734
1618540470.372897,15.000000,0.000000,4269.743652,4901.538574,4198.461426,4158.974121,4225.641113,16212.000000,3.000000,73.000000,,,,0.000000,4.000000,2.000000,4.000000,4.000000,4.000000,83.333336,,,,,,,,,,,,,,,,,,,
1618540470.380713,16.000000,0.000000,4261.538574,4876.410156,4186.153809,4206.666504,4229.743652,0.000000,3.000000,73.000000,,,,0.000000,4.000000,2.000000,4.000000,4.000000,4.000000,83.333336,,,,,,,,8.000000,0.000000,0.744939,0.080322,0.613281,-0.250000,0.963882,0.172366,-0.235355,9.829194,-0.808907,14.326030
1618540470.388629,17.000000,0.000000,4261.025879,4946.666504,4191.282227,4232.820313,4234.358887,0.000000,3.000000,73.000000,,,,0.000000,4.000000,2.000000,4.000000,4.000000,4.000000,83.333336,,,,,,,,,,,,,,,,,,,
1618540470.396445,18.000000,0.000000,4274.871582,4987.692383,4200.000000,4232.307617,4239.487305,0.000000,3.000000,73.000000,,,,0.000000,4.000000,2.000000,4.000000,4.000000,4.000000,83.333336,,,,,,,,9.000000,0.000000,0.744939,0.080322,0.613281,-0.250000,0.967300,0.195315,-0.246098,8.188305,1.604783,14.209365
1618540470.404260,19.000000,0.000000,4270.769043,4996.410156,4196.410156,4246.666504,4231.794922,0.000000,3.000000,73.000000,,,,0.000000,4.000000,2.000000,4.000000,4.000000,4.000000,83.333336,,,,,,,,,,,,,,,,,,,
1618540470.412076,20.000000,0.000000,4257.436035,4979.487305,4188.717773,4267.692383,4218.974121,0.000000,3.000000,73.000000,,,,0.000000,4.000000,2.000000,4.000000,4.000000,4.000000,83.333336,,,,,,,,10.000000,0.000000,0.744857,0.080322,0.613281,-0.250244,0.950698,0.191897,-0.229984,4.617968,3.956550,14.283813
1618540470.419892,21.000000,0.000000,4257.948730,4924.615234,4187.179688,4268.717773,4218.461426,0.000000,3.000000,73.000000,,,,0.000000,4.000000,2.000000,4.000000,4.000000,4.000000,83.333336,,,,,,,,,,,,,,,,,,,
1618540470.427708,22.000000,0.000000,4266.666504,4951.282227,4189.230957,4269.743652,4230.256348,0.000000,3.000000,73.000000,,,,0.000000,4.000000,2.000000,4.000000,4.000000,4.000000,83.333336,,,,,,,,11.000000,0.000000,0.744939,0.080322,0.613281,-0.250000,0.967300,0.195315,-0.246098,3.498202,5.893694,14.171369
1618540470.435524,23.000000,0.000000,4276.922852,5018.461426,4194.871582,4284.615234,4238.974121,0.000000,3.000000,73.000000,,,,0.000000,4.000000,2.000000,4.000000,4.000000,4.000000,83.333336,,,,,,,,,,,,,,,,,,,
1618540470.443340,24.000000,0.000000,4278.461426,4979.487305,4200.000000,4294.358887,4244.102539,0.000000,3.000000,73.000000,,,,0.000000,4.000000,2.000000,4.000000,4.000000,4.000000,83.333336,1.000000,66.666664,4.000000,1.000000,4.000000,3.000000,4.000000,12.000000,0.000000,0.744939,0.080322,0.613281,-0.250000,0.967300,0.174319,-0.242679,0.396875,7.816570,14.249617
1618540470.451255,25.000000,0.000000,4270.769043,4922.563965,4193.333496,4288.205078,4251.282227,0.000000,3.000000,73.000000,,,,0.000000,4.000000,2.000000,4.000000,4.000000,4.000000,83.333336,,,,,,,,,,,,,,,,,,,
1618540470.459071,26.000000,0.000000,4267.179688,4963.077148,4186.666504,4282.051270,4257.948730,0.000000,3.000000,73.000000,,,,0.000000,4.000000,2.000000,4.000000,4.000000,4.000000,83.333336,,,,,,,,13.000000,0.000000,0.744939,0.080322,0.613281,-0.250000,0.977066,0.184573,-0.241703,1.374049,9.547158,14.260223
1618540470.466887,27.000000,0.000000,4269.230957,4992.820313,4190.769043,4290.256348,4258.461426,0.000000,3.000000,73.000000,,,,0.000000,4.000000,2.000000,4.000000,4.000000,4.000000,83.333336,,,,,,,,,,,,,,,,,,,
1618540470.474703,28.000000,0.000000,4263.077148,4923.589844,4190.769043,4294.358887,4250.256348,0.000000,3.000000,73.000000,,,,0.000000,4.000000,2.000000,4.000000,4.000000,4.000000,83.333336,,,,,,,,14.000000,0.000000,0.745021,0.080322,0.613281,-0.249756,0.960464,0.174807,-0.234379,2.432951,7.097058,14.329585
1618540470.482519,29.000000,0.000000,4254.358887,4933.846191,4186.153809,4293.333496,4240.000000,0.000000,3.000000,73.000000,,,,0.000000,4.000000,2.000000,4.000000,4.000000,4.000000,83.333336,,,,,,,,,,,,,,,,,,,
1618540470.490335,30.000000,0.000000,4260.512695,5017.436035,4196.410156,4306.666504,4246.153809,0.000000,3.000000,73.000000,,,,0.000000,4.000000,2.000000,4.000000,4.000000,4.000000,83.333336,,,,,,,,15.000000,0.000000,0.745222,0.080322,0.613037,-0.249756,0.967300,0.188968,-0.236332,3.445779,8.899598,14.212564
1618540470.498150,31.000000,0.000000,4272.820313,5004.615234,4209.743652,4329.230957,4258.461426,0.000000,3.000000,73.000000,,,,0.000000,4.000000,2.000000,4.000000,4.000000,4.000000,83.333336,,,,,,,,,,,,,,,,,,,
1618540470.505966,32.000000,0.000000,4270.769043,4945.128418,4203.589844,4337.436035,4254.358887,0.000000,3.000000,73.000000,,,,0.000000,4.000000,2.000000,4.000000,4.000000,4.000000,83.333336,,,,,,,,16.000000,0.000000,0.745222,0.080322,0.613037,-0.249756,0.959976,0.181643,-0.240726,4.237693,6.753515,14.167062
1618540470.513782,33.000000,0.000000,4265.128418,4954.358887,4189.230957,4327.692383,4247.179688,0.000000,3.000000,73.000000,,,,0.000000,4.000000,2.000000,4.000000,4.000000,4.000000,83.333336,,,,,,,,,,,,,,,,,,,
1618540470.521698,34.000000,0.000000,4269.230957,4994.358887,4185.641113,4325.128418,4252.820313,0.000000,3.000000,73.000000,,,,0.000000,4.000000,2.000000,4.000000,4.000000,4.000000,83.333336,,,,,,,,17.000000,0.000000,0.745140,0.080322,0.613037,-0.250000,0.969253,0.179690,-0.237308,1.122232,8.410963,14.006478
1618540470.529514,35.000000,0.000000,4267.692383,4970.256348,4188.717773,4326.153809,4253.846191,0.000000,3.000000,73.000000,,,,0.000000,4.000000,2.000000,4.000000,4.000000,4.000000,83.333336,,,,,,,,,,,,,,,,,,,
1618540470.537329,36.000000,0.000000,4267.692383,4950.769043,4193.846191,4318.974121,4249.743652,0.000000,3.000000,73.000000,,,,0.000000,4.000000,2.000000,4.000000,4.000000,4.000000,83.333336,,,,,,,,18.000000,0.000000,0.745140,0.080322,0.613037,-0.250000,0.959487,0.182620,-0.234379,2.086685,10.022297,14.041399
1618540470.545145,37.000000,0.000000,4280.000000,4970.769043,4205.128418,4315.897461,4249.743652,0.000000,3.000000,73.000000,,,,0.000000,4.000000,2.000000,4.000000,4.000000,4.000000,83.333336,,,,,,,,,,,,,,,,,,,
1618540470.552961,38.000000,0.000000,4275.384766,4968.205078,4206.666504,4310.256348,4241.025879,0.000000,3.000000,73.000000,,,,0.000000,4.000000,2.000000,4.000000,4.000000,4.000000,83.333336,,,,,,,,19.000000,0.000000,0.745140,0.080322,0.613037,-0.250000,0.954604,0.179202,-0.238773,-0.933305,11.352866,14.072828
1618540470.560777,39.000000,0.000000,4258.461426,4944.615234,4201.538574,4309.743652,4231.282227,0.000000,3.000000,73.000000,,,,0.000000,4.000000,2.000000,4.000000,4.000000,4.000000,83.333336,,,,,,,,,,,,,,,,,,,
1618540470.568593,40.000000,0.000000,4263.077148,4954.871582,4203.077148,4324.615234,4236.922852,0.000000,3.000000,73.000000,,,,0.000000,4.000000,2.000000,4.000000,4.000000,4.000000,83.333336,,,,,,,,20.000000,0.000000,0.745140,0.080322,0.613037,-0.250000,0.956069,0.194827,-0.228031,2.270424,8.782011,14.041299
1618540470.576409,41.000000,0.000000,4276.410156,4968.717773,4194.358887,4329.743652,4245.641113,0.000000,3.000000,73.000000,,,,0.000000,4.000000,2.000000,4.000000,4.000000,4.000000,83.333336,,,,,,,,,,,,,,,,,,,
1618540470.584324,42.000000,0.000000,4276.410156,4961.025879,4181.538574,4313.846191,4246.666504,0.000000,3.000000,73.000000,,,,0.000000,4.000000,2.000000,4.000000,4.000000,4.000000,83.333336,,,,,,,,21.000000,0.000000,0.745058,0.080322,0.613037,-0.250244,0.969741,0.182132,-0.236332,-0.827756,10.356240,14.132553
1618540470.592140,43.000000,0.000000,4271.794922,4968.205078,4185.641113,4308.205078,4253.333496,0.000000,3.000000,73.000000,,,,0.000000,4.000000,2.000000,4.000000,4.000000,4.000000,83.333336,,,,,,,,,,,,,,,,,,,
1618540470.599956,44.000000,0.000000,4272.820313,4953.846191,4191.282227,4316.922852,4260.000000,0.000000,3.000000,73.000000,,,,0.000000,4.000000,2.000000,4.000000,4.000000,4.000000,83.333336,,,,,,,,22.000000,0.000000,0.745058,0.080322,0.613037,-0.250244,0.958022,0.181155,-0.233402,-3.317041,11.773046,14.214682
1618540470.607772,45.000000,0.000000,4273.333496,4968.717773,4184.615234,4314.871582,4250.769043,0.000000,3.000000,73.000000,,,,0.000000,4.000000,2.000000,4.000000,4.000000,4.000000,83.333336,,,,,,,,,,,,,,,,,,,
1618540470.615588,46.000000,0.000000,4271.282227,5023.589844,4180.000000,4307.179688,4242.051270,0.000000,3.000000,73.000000,,,,0.000000,4.000000,2.000000,4.000000,4.000000,4.000000,83.333336,,,,,,,,23.000000,0.000000,0.745058,0.080322,0.613037,-0.250244,0.952651,0.189456,-0.241703,-1.729214,9.160172,14.228783
1618540470.623404,47.000000,0.000000,4268.717773,4973.333496,4177.948730,4306.666504,4240.512695,0.000000,3.000000,73.000000,,,,0.000000,4.000000,2.000000,4.000000,4.000000,4.000000,83.333336,,,,,,,,,,,,,,,,,,,
1618540470.631219,48.000000,0.000000,4271.282227,4888.717773,4173.846191,4302.563965,4236.922852,0.000000,3.000000,73.000000,,,,0.000000,4.000000,2.000000,4.000000,4.000000,4.000000,83.333336,,,,,,,,24.000000,0.000000,0.745058,0.080322,0.613037,-0.250244,0.960464,0.175296,-0.237797,-4.427430,10.696586,14.301289
1618540470.639035,49.000000,0.000000,4265.641113,4954.871582,4172.307617,4289.230957,4227.179688,0.000000,3.000000,73.000000,,,,0.000000,4.000000,2.000000,4.000000,4.000000,4.000000,83.333336,,,,,,,,,,,,,,,,,,,
1618540470.646951,50.000000,0.000000,4241.025879,5013.333496,4169.230957,4278.974121,4210.769043,0.000000,3.000000,73.000000,,,,0.000000,4.000000,2.000000,4.000000,4.000000,4.000000,83.333336,,,,,,,,25.000000,0.000000,0.745114,0.080566,0.613037,-0.250000,0.965347,0.189944,-0.243656,-2.848195,12.019542,14.426359
1618540470.654767,51.000000,0.000000,4226.153809,4929.230957,4162.051270,4286.153809,4205.128418,0.000000,3.000000,73.000000,,,,0.000000,4.000000,2.000000,4.000000,4.000000,4.000000,83.333336,,,,,,,,,,,,,,,,,,,
1618540470.662583,52.000000,0.000000,4238.974121,4924.102539,4169.743652,4300.512695,4223.589844,0.000000,3.000000,73.000000,,,,0.000000,4.000000,2.000000,4.000000,4.000000,4.000000,83.333336,,,,,,,,26.000000,0.000000,0.745114,0.080566,0.613037,-0.250000,0.964370,0.190921,-0.230472,-1.546515,13.210202,14.359476
1618540470.670399,53.000000,0.000000,4257.436035,5007.692383,4183.589844,4297.948730,4243.077148,0.000000,3.000000,73.000000,,,,0.000000,4.000000,2.000000,4.000000,4.000000,4.000000,83.333336,,,,,,,,,,,,,,,,,,,
1618540470.678214,54.000000,0.000000,4257.948730,4984.615234,4186.153809,4295.384766,4243.077148,0.000000,3.000000,73.000000,,,,0.000000,4.000000,2.000000,4.000000,4.000000,4.000000,83.333336,,,,,,,,27.000000,0.000000,0.745114,0.080566,0.613037,-0.250000,0.960464,0.183597,-0.229007,1.539090,10.393798,14.359097
1618540470.686030,55.000000,0.000000,4250.256348,4910.256348,4185.128418,4312.307617,4237.948730,0.000000,3.000000,73.000000,,,,0.000000,4.000000,2.000000,4.000000,4.000000,4.000000,83.333336,,,,,,,,,,,,,,,,,,,
1618540470.693846,56.000000,0.000000,4249.230957,4919.487305,4186.153809,4317.948730,4237.436035,0.000000,3.000000,73.000000,,,,0.000000,4.000000,2.000000,4.000000,4.000000,4.000000,83.333336,,,,,,,,28.000000,0.000000,0.745370,0.080811,0.612793,-0.249756,0.969741,0.183597,-0.239750,-1.127064,11.687217,14.239126
1618540470.701662,57.000000,0.000000,4248.717773,5012.307617,4185.128418,4305.641113,4234.871582,0.000000,3.000000,73.000000,,,,0.000000,4.000000,2.000000,4.000000,4.000000,4.000000,83.333336,,,,,,,,,,,,,,,,,,,
1618540470.709478,58.000000,0.000000,4249.230957,5043.077148,4183.077148,4298.974121,4234.871582,0.000000,3.000000,73.000000,,,,0.000000,4.000000,2.000000,4.000000,4.000000,4.000000,83.333336,,,,,,,,29.000000,0.000000,0.745169,0.080811,0.613037,-0.249756,0.958511,0.170413,-0.242679,0.301580,9.082927,14.310597
1618540470.717393,59.000000,0.000000,4251.282227,4938.974121,4186.666504,4298.974121,4239.487305,0.000000,3.000000,73.000000,,,,0.000000,4.000000,2.000000,4.000000,4.000000,4.000000,83.333336,,,,,,,,,,,,,,,,,,,
1618540470.725209,60.000000,0.000000,4248.205078,4894.871582,4191.794922,4298.461426,4237.436035,0.000000,3.000000,73.000000,,,,0.000000,4.000000,2.000000,4.000000,4.000000,4.000000,83.333336,,,,,,,,30.000000,0.000000,0.745087,0.080811,0.613037,-0.250000,0.967788,0.175784,-0.244633,1.348099,6.918511,14.315106
1618540470.733025,61.000000,0.000000,4234.358887,4971.282227,4183.589844,4294.871582,4224.615234,0.000000,3.000000,73.000000,,,,0.000000,4.000000,2.000000,4.000000,4.000000,4.000000,83.333336,,,,,,,,,,,,,,,,,,,
1618540470.740841,62.000000,0.000000,4224.102539,5013.333496,4175.897461,4291.794922,4216.410156,0.000000,3.000000,73.000000,,,,0.000000,4.000000,2.000000,4.000000,4.000000,4.000000,83.333336,,,,,,,,31.000000,0.000000,0.745087,0.080811,0.613037,-0.250000,0.975113,0.172366,-0.239750,0.375874,4.850907,14.199533
1618540470.748657,63.000000,0.000000,4231.282227,4970.256348,4184.615234,4299.487305,4222.051270,0.000000,3.000000,73.000000,,,,0.000000,4.000000,2.000000,4.000000,4.000000,4.000000,83.333336,,,,,,,,,,,,,,,,,,,
1618540470.756473,64.000000,0.000000,4240.000000,4922.563965,4193.333496,4297.436035,4223.589844,450.000000,3.000000,73.000000,,,,0.000000,4.000000,2.000000,4.000000,4.000000,4.000000,83.333336,,,,,,,,32.000000,0.000000,0.745087,0.080811,0.613037,-0.250000,0.976577,0.186526,-0.234867,3.388870,2.930247,14.334780
1618540470.764288,65.000000,0.000000,4244.615234,4923.589844,4198.461426,4288.205078,4222.563965,450.000000,3.000000,73.000000,,,,0.000000,4.000000,2.000000,4.000000,4.000000,4.000000,83.333336,,,,,,,,,,,,,,,,,,,
1618540470.772104,66.000000,0.000000,4252.820313,4916.922852,4211.282227,4299.487305,4233.333496,16210.000000,3.000000,73.000000,,,,0.000000,4.000000,2.000000,4.000000,4.000000,4.000000,83.333336,,,,,,,,33.000000,0.000000,0.745061,0.081055,0.613037,-0.250000,0.958999,0.179202,-0.234867,4.126659,1.141838,14.217240
1618540470.779920,67.000000,0.000000,4249.743652,4903.589844,4215.384766,4298.974121,4229.743652,450.000000,3.000000,73.000000,,,,0.000000,4.000000,2.000000,4.000000,4.000000,4.000000,83.333336,,,,,,,,,,,,,,,,,,,
1618540470.787836,68.000000,0.000000,4235.384766,4900.000000,4204.102539,4277.948730,4213.333496,182.000000,3.000000,73.000000,,,,0.000000,4.000000,2.000000,4.000000,4.000000,4.000000,83.333336,,,,,,,,34.000000,0.000000,0.745061,0.081055,0.613037,-0.250000,0.964370,0.182132,-0.233890,6.824393,-0.527545,14.231085
1618540470.795651,69.000000,0.000000,4244.615234,4921.538574,4200.512695,4288.205078,4221.025879,450.000000,3.000000,73.000000,,,,0.000000,4.000000,2.000000,4.000000,4.000000,4.000000,83.333336,,,,,,,,,,,,,,,,,,,
1618540470.803567,70.000000,0.000000,4262.051270,4936.922852,4202.563965,4307.179688,4240.512695,16174.000000,3.000000,73.000000,,,,0.000000,4.000000,2.000000,4.000000,4.000000,4.000000,83.333336,,,,,,,,35.000000,0.000000,0.745061,0.081055,0.613037,-0.250000,0.970230,0.188479,-0.229984,9.192537,-1.910359,14.363175
1618540470.811383,71.000000,0.000000,4255.897461,4950.769043,4196.410156,4290.769043,4242.051270,450.000000,3.000000,73.000000,,,,0.000000,4.000000,2.000000,4.000000,4.000000,4.000000,83.333336,,,,,,,,,,,,,,,,,,,
1618540470.819199,72.000000,0.000000,4249.743652,5005.128418,4190.769043,4266.666504,4238.974121,450.000000,3.000000,73.000000,,,,0.000000,4.000000,2.000000,4.000000,4.000000,4.000000,83.333336,,,,,,,,36.000000,0.000000,0.744860,0.081055,0.613281,-0.250000,0.966812,0.188968,-0.239750,11.323867,-2.915631,14.242796
1618540470.827014,73.000000,0.000000,4249.743652,5024.102539,4189.230957,4247.179688,4242.051270,319.000000,3.000000,73.000000,,,,0.000000,4.000000,2.000000,4.000000,4.000000,4.000000,83.333336,,,,,,,,,,,,,,,,,,,
1618540470.834830,74.000000,0.000000,4245.128418,4974.358887,4187.179688,4208.717773,4238.974121,450.000000,3.000000,73.000000,,,,0.000000,4.000000,2.000000,4.000000,4.000000,4.000000,83.333336,,,,,,,,37.000000,0.000000,0.744886,0.080811,0.613281,-0.250000,0.960464,0.188479,-0.239750,11.268157,-0.351084,14.373716
1618540470.842646,75.000000,0.000000,4242.563965,4901.538574,4189.743652,4177.436035,4232.820313,16211.000000,3.000000,73.000000,,,,0.000000,4.000000,2.000000,4.000000,4.000000,4.000000,83.333336,,,,,,,,,,,,,,,,,,,
1618540470.850462,76.000000,0.000000,4235.897461,4895.897461,4188.205078,4168.717773,4221.025879,450.000000,3.000000,73.000000,,,,0.000000,4.000000,2.000000,4.000000,4.000000,4.000000,83.333336,,,,,,,,38.000000,0.000000,0.744968,0.080811,0.613281,-0.249756,0.958999,0.189944,-0.240238,9.303926,-1.691729,14.491544
1618540470.858278,77.000000,0.000000,4222.563965,4940.000000,4180.000000,4160.000000,4207.692383,450.000000,3.000000,73.000000,,,,0.000000,4.000000,2.000000,4.000000,4.000000,4.000000,83.333336,,,,,,,,,,,,,,,,,,,
1618540470.866094,78.000000,0.000000,4225.128418,4933.333496,4181.025879,4154.358887,4208.205078,450.000000,3.000000,73.000000,,,,0.000000,4.000000,2.000000,4.000000,4.000000,4.000000,83.333336,,,,,,,,39.000000,0.000000,0.744968,0.080811,0.613281,-0.249756,0.952163,0.184085,-0.232914,7.715564,-2.898309,14.537774
1618540470.873810,79.000000,0.000000,4236.410156,4905.641113,4189.743652,4144.615234,4213.846191,16211.000000,3.000000,73.000000,,,,0.000000,4.000000,2.000000,4.000000,4.000000,4.000000,83.333336,,,,,,,,,,,,,,,,,,,
1618540470.881625,80.000000,0.000000,4241.538574,4909.230957,4190.769043,4134.871582,4211.282227,450.000000,3.000000,73.000000,,,,0.000000,4.000000,2.000000,4.000000,4.000000,4.000000,83.333336,,,,,,,,40.000000,0.000000,0.744913,0.080566,0.613281,-0.250000,0.963394,0.168460,-0.240726,9.934776,-4.103862,14.459750
1618540470.889441,81.000000,0.000000,4249.743652,4946.666504,4185.128418,4140.512695,4213.846191,450.000000,3.000000,73.000000,,,,0.000000,4.000000,2.000000,4.000000,4.000000,4.000000,83.333336,,,,,,,,,,,,,,,,,,,
1618540470.897257,82.000000,0.000000,4258.974121,4965.641113,4178.461426,4138.974121,4224.102539,450.000000,3.000000,73.000000,,,,0.000000,4.000000,2.000000,4.000000,4.000000,4.000000,83.333336,,,,,,,,41.000000,0.000000,0.744968,0.080811,0.613281,-0.249756,0.958999,0.189944,-0.240238,6.369238,-1.360677,14.568974
1618540470.905073,83.000000,0.000000,4250.769043,4945.641113,4172.307617,4123.077148,4222.051270,16211.000000,3.000000,73.000000,,,,0.000000,4.000000,2.000000,4.000000,4.000000,4.000000,83.333336,,,,,,,,,,,,,,,,,,,
1618540470.912889,84.000000,0.000000,4237.436035,4933.333496,4166.666504,4108.717773,4206.153809,450.000000,3.000000,73.000000,,,,0.000000,4.000000,2.000000,4.000000,4.000000,4.000000,83.333336,,,,,,,,42.000000,0.000000,0.744913,0.080566,0.613281,-0.250000,0.963394,0.168460,-0.240726,8.723083,-2.719993,14.487830
1618540470.920705,85.000000,0.000000,4239.487305,4987.179688,4165.641113,4097.436035,4196.922852,450.000000,3.000000,73.000000,,,,0.000000,4.000000,2.000000,4.000000,4.000000,4.000000,83.333336,,,,,,,,,,,,,,,,,,,
1618540470.928520,86.000000,0.000000,4235.384766,5005.641113,4164.615234,4080.000000,4190.769043,450.000000,3.000000,73.000000,,,,0.000000,4.000000,2.000000,4.000000,4.000000,4.000000,83.333336,,,,,,,,43.000000,0.000000,0.745114,0.080566,0.613037,-0.250000,0.964370,0.184573,-0.237797,10.961173,-3.943378,14.654062
1618540470.936436,87.000000,0.000000,4221.025879,4926.153809,4167.179688,4063.589844,4173.846191,16211.000000,3.000000,73.000000,,,,0.000000,4.000000,2.000000,4.000000,4.000000,4.000000,83.333336,,,,,,,,,,,,,,,,,,,
1618540470.944252,88.000000,0.000000,4224.102539,4884.615234,4177.948730,4062.051270,4161.538574,450.000000,3.000000,73.000000,,,,0.000000,4.000000,2.000000,4.000000,4.000000,4.000000,83.333336,1.000000,66.666664,4.000000,1.000000,4.000000,3.000000,4.000000,44.000000,0.000000,0.745058,0.080322,0.613037,-0.250244,0.973159,0.172366,-0.243656,10.881917,-1.096610,14.624225
1618540470.952068,89.000000,0.000000,4240.512695,4896.410156,4181.538574,4084.102539,4174.871582,450.000000,3.000000,73.000000,,,,0.000000,4.000000,2.000000,4.000000,4.000000,4.000000,83.333336,,,,,,,,,,,,,,,,,,,
1618540470.959884,90.000000,0.000000,4245.128418,4924.102539,4169.743652,4107.692383,4193.846191,450.000000,3.000000,73.000000,,,,0.000000,4.000000,2.000000,4.000000,4.000000,4.000000,83.333336,,,,,,,,45.000000,0.000000,0.745058,0.080322,0.613037,-0.250244,0.961929,0.181643,-0.237797,12.784493,-2.243072,14.597371
1618540470.967700,91.000000,0.000000,4237.436035,4945.128418,4163.077148,4087.692383,4194.871582,16211.000000,3.000000,73.000000,,,,0.000000,4.000000,2.000000,4.000000,4.000000,4.000000,83.333336,,,,,,,,,,,,,,,,,,,
1618540470.975515,92.000000,0.000000,4235.384766,4937.948730,4165.641113,4069.230713,4193.846191,450.000000,3.000000,73.000000,,,,0.000000,4.000000,2.000000,4.000000,4.000000,4.000000,83.333336,,,,,,,,46.000000,0.000000,0.745058,0.080322,0.613037,-0.250244,0.973159,0.191409,-0.234379,14.616444,-3.514149,14.752649
1618540470.983331,93.000000,0.000000,4242.051270,4966.153809,4171.282227,4094.358887,4205.641113,450.000000,3.000000,73.000000,,,,0.000000,4.000000,2.000000,4.000000,4.000000,4.000000,83.333336,,,,,,,,,,,,,,,,,,,
1618540470.991147,94.000000,0.000000,4244.615234,4953.333496,4182.563965,4112.820313,4208.717773,450.000000,3.000000,73.000000,,,,0.000000,4.000000,2.000000,4.000000,4.000000,4.000000,83.333336,,,,,,,,47.000000,0.000000,0.745058,0.080322,0.613037,-0.250244,0.957534,0.179690,-0.224613,10.343477,-0.650489,14.653137
1618540470.998963,95.000000,0.000000,4238.461426,4867.692383,4183.589844,4106.153809,4194.871582,16211.000000,3.000000,73.000000,,,,0.000000,4.000000,2.000000,4.000000,4.000000,4.000000,83.333336,,,,,,,,,,,,,,,,,,,
1618540471.006779,96.000000,0.000000,4238.974121,4874.871582,4167.692383,4110.256348,4190.256348,450.000000,3.000000,73.000000,,,,0.000000,4.000000,2.000000,4.000000,4.000000,4.000000,83.333336,,,,,,,,48.000000,0.000000,0.745084,0.080078,0.613037,-0.250244,0.960952,0.189944,-0.239750,9.249313,-1.961193,14.563577
1618540471.014495,97.000000,0.000000,4245.641113,4997.436035,4150.769043,4118.974121,4201.538574,450.000000,3.000000,73.000000,,,,0.000000,4.000000,2.000000,4.000000,4.000000,4.000000,83.333336,,,,,,,,,,,,,,,,,,,
1618540471.022311,98.000000,0.000000,4248.205078,5047.179688,4150.256348,4107.692383,4208.717773,450.000000,3.000000,73.000000,,,,0.000000,4.000000,2.000000,4.000000,4.000000,4.000000,83.333336,,,,,,,,49.000000,0.000000,0.745084,0.080078,0.613037,-0.250244,0.971206,0.190433,-0.244633,7.606598,-3.200643,14.542789
1618540471.030126,99.000000,0.000000,4251.794922,4940.512695,4163.589844,4093.846191,4207.692383,16211.000000,3.000000,73.000000,,,,0.000000,4.000000,2.000000,4.000000,4.000000,4.000000,83.333336,,,,,,,,,,,,,,,,,,,
1618540471.037942,100.000000,0.000000,4251.794922,4847.179688,4175.384766,4089.743652,4202.051270,450.000000,3.000000,73.000000,,,,0.000000,4.000000,2.000000,4.000000,4.000000,4.000000,83.333336,,,,,,,,50.000000,0.000000,0.745111,0.079834,0.613037,-0.250244,0.956069,0.195315,-0.235355,7.922615,-4.256332,14.404448
1618540471.045758,101.000000,0.000000,4249.230957,4905.641113,4174.358887,4088.718018,4193.846191,450.000000,3.000000,73.000000,,,,0.000000,4.000000,2.000000,4.000000,4.000000,4.000000,83.333336,,,,,,,,,,,,,,,,,,,
1618540471.053574,102.000000,0.000000,4260.512695,4951.794922,4168.205078,4094.871826,4201.538574,450.000000,3.000000,73.000000,,,,0.000000,4.000000,2.000000,4.000000,4.000000,4.000000,83.333336,,,,,,,,51.000000,0.000000,0.745111,0.079834,0.613037,-0.250244,0.968277,0.194339,-0.245121,10.061306,-5.206452,14.519202
1618540471.061390,103.000000,0.000000,4265.128418,4935.897461,4164.102539,4107.179688,4214.358887,16211.000000,3.000000,73.000000,,,,0.000000,4.000000,2.000000,4.000000,4.000000,4.000000,83.333336,,,,,,,,,,,,,,,,,,,
1618540471.069206,104.000000,0.000000,4244.615234,4980.000000,4155.897461,4110.256348,4210.256348,450.000000,3.000000,73.000000,,,,0.000000,4.000000,2.000000,4.000000,4.000000,4.000000,83.333336,,,,,,,,52.000000,0.000000,0.745311,0.079834,0.612793,-0.250244,0.969253,0.182620,-0.234379,10.251483,-6.121376,14.502851
1618540471.077021,105.000000,0.000000,4233.333496,5011.282227,4154.358887,4104.615234,4205.641113,450.000000,3.000000,73.000000,,,,0.000000,4.000000,2.000000,4.000000,4.000000,4.000000,83.333336,,,,,,,,,,,,,,,,,,,
1618540471.084737,106.000000,0.000000,4243.589844,4965.128418,4169.230957,4102.051270,4209.743652,450.000000,3.000000,73.000000,,,,0.000000,4.000000,2.000000,4.000000,4.000000,4.000000,83.333336,,,,,,,,53.000000,0.000000,0.745311,0.079834,0.612793,-0.250244,0.955093,0.191409,-0.241215,10.362826,-3.116623,14.547950
1618540471.092553,107.000000,0.000000,4244.615234,4895.384766,4181.538574,4099.487305,4203.589844,16211.000000,3.000000,73.000000,,,,0.000000,4.000000,2.000000,4.000000,4.000000,4.000000,83.333336,,,,,,,,,,,,,,,,,,,
1618540471.100369,108.000000,0.000000,4243.589844,4867.179688,4185.641113,4098.974121,4194.871582,450.000000,3.000000,73.000000,,,,0.000000,4.000000,2.000000,4.000000,4.000000,4.000000,83.333336,,,,,,,,54.000000,0.000000,0.745311,0.079834,0.612793,-0.250244,0.956558,0.188479,-0.241215,10.403220,-0.472162,14.468908
1618540471.108185,109.000000,0.000000,4259.487305,4926.153809,4186.153809,4112.307617,4202.051270,450.000000,3.000000,73.000000,,,,0.000000,4.000000,2.000000,4.000000,4.000000,4.000000,83.333336,,,,,,,,,,,,,,,,,,,
1618540471.116001,110.000000,0.000000,4270.256348,4987.692383,4180.000000,4124.615234,4215.897461,450.000000,3.000000,73.000000,,,,0.000000,4.000000,2.000000,4.000000,4.000000,4.000000,83.333336,,,,,,,,55.000000,0.000000,0.745311,0.079834,0.612793,-0.250244,0.976089,0.179690,-0.242191,6.671207,2.027484,14.577217
1618540471.123817,111.000000,0.000000,4255.897461,4946.666504,4172.820313,4118.974121,4218.974121,16211.000000,3.000000,73.000000,,,,0.000000,4.000000,2.000000,4.000000,4.000000,4.000000,83.333336,,,,,,,,,,,,,,,,,,,
1618540471.131632,112.000000,0.000000,4239.487305,4908.717773,4166.666504,4105.641113,4217.436035,450.000000,3.000000,73.000000,,,,0.000000,4.000000,2.000000,4.000000,4.000000,4.000000,83.333336,,,,,,,,56.000000,0.000000,0.745111,0.079834,0.613037,-0.250244,0.960464,0.181155,-0.236820,5.944271,0.389167,14.555064
1618540471.139448,113.000000,0.000000,4240.512695,4986.666504,4161.025879,4101.025879,4214.871582,450.000000,3.000000,73.000000,,,,0.000000,4.000000,2.000000,4.000000,4.000000,4.000000,83.333336,,,,,,,,,,,,,,,,,,,
1618540471.147364,114.000000,0.000000,4239.487305,5021.538574,4166.153809,4110.769043,4204.102539,450.000000,3.000000,73.000000,,,,0.000000,4.000000,2.000000,4.000000,4.000000,4.000000,83.333336,,,,,,,,57.000000,0.000000,0.745111,0.079834,0.613037,-0.250244,0.962905,0.176761,-0.235355,2.478706,2.802680,14.415496
1618540471.155180,115.000000,0.000000,4229.230957,4906.666504,4180.000000,4113.333496,4192.820313,16211.000000,3.000000,73.000000,,,,0.000000,4.000000,2.000000,4.000000,4.000000,4.000000,83.333336,,,,,,,,,,,,,,,,,,,
1618540471.162996,116.000000,0.000000,4231.282227,4833.333496,4186.666504,4107.692383,4189.743652,450.000000,3.000000,73.000000,,,,0.000000,4.000000,2.000000,4.000000,4.000000,4.000000,83.333336,,,,,,,,58.000000,0.000000,0.745029,0.079834,0.613037,-0.250488,0.955093,0.188968,-0.250492,3.367328,0.967213,14.349699
1618540471.170811,117.000000,0.000000,4240.512695,4926.666504,4177.948730,4109.230957,4192.307617,450.000000,3.000000,73.000000,,,,0.000000,4.000000,2.000000,4.000000,4.000000,4.000000,83.333336,,,,,,,,,,,,,,,,,,,
1618540471.178627,118.000000,0.000000,4236.922852,4980.000000,4162.051270,4108.717773,4193.333496,450.000000,3.000000,73.000000,,,,0.000000,4.000000,2.000000,4.000000,4.000000,4.000000,83.333336,,,,,,,,59.000000,0.000000,0.745111,0.079834,0.613037,-0.250244,0.961929,0.178225,-0.229984,5.901732,-0.565077,14.290483
1618540471.186443,119.000000,0.000000,4238.974121,4916.410156,4156.922852,4104.102539,4200.512695,16211.000000,3.000000,73.000000,,,,0.000000,4.000000,2.000000,4.000000,4.000000,4.000000,83.333336,,,,,,,,,,,,,,,,,,,
1618540471.194259,120.000000,0.000000,4254.871582,4957.436035,4162.051270,4103.077148,4209.743652,450.000000,3.000000,73.000000,,,,0.000000,4.000000,2.000000,4.000000,4.000000,4.000000,83.333336,,,,,,,,60.000000,0.000000,0.745111,0.079834,0.613037,-0.250244,0.962417,0.195315,-0.236820,2.560052,1.884045,14.297004
1618540471.202075,121.000000,0.000000,4263.589844,5048.717773,4168.205078,4107.692383,4216.410156,450.000000,3.000000,73.000000,,,,0.000000,4.000000,2.000000,4.000000,4.000000,4.000000,83.333336,,,,,,,,,,,,,,,,,,,
1618540471.209891,122.000000,0.000000,4268.205078,4971.794922,4175.384766,4111.282227,4220.512695,450.000000,3.000000,73.000000,,,,0.000000,4.000000,2.000000,4.000000,4.000000,4.000000,83.333336,,,,,,,,61.000000,0.000000,0.745137,0.079590,0.613037,-0.250244,0.966812,0.201663,-0.240726,3.380724,0.319887,14.243056
1618540471.217706,123.000000,0.000000,4268.205078,4909.230957,4182.051270,4116.410156,4215.897461,16211.000000,3.000000,73.000000,,,,0.000000,4.000000,2.000000,4.000000,4.000000,4.000000,83.333336,,,,,,,,,,,,,,,,,,,
1618540471.225422,124.000000,0.000000,4261.025879,5004.615234,4186.666504,4125.641113,4211.794922,450.000000,3.000000,73.000000,,,,0.000000,4.000000,2.000000,4.000000,4.000000,4.000000,83.333336,,,,,,,,62.000000,0.000000,0.745137,0.079590,0.613037,-0.250244,0.960464,0.182620,-0.235843,4.238959,-1.028040,14.194505
1618540471.233238,125.000000,0.000000,4266.153809,5003.589844,4193.333496,4131.794922,4222.563965,450.000000,3.000000,73.000000,,,,0.000000,4.000000,2.000000,4.000000,4.000000,4.000000,83.333336,,,,,,,,,,,,,,,,,,,
1618540471.241054,126.000000,0.000000,4278.461426,4899.487305,4194.358887,4125.641113,4234.358887,450.000000,3.000000,73.000000,,,,0.000000,4.000000,2.000000,4.000000,4.000000,4.000000,83.333336,,,,,,,,63.000000,0.000000,0.745137,0.079590,0.613037,-0.250244,0.959976,0.189944,-0.236332,5.011370,1.527194,14.270438
1618540471.248870,127.000000,0.000000,4274.358887,4910.769043,4186.153809,4116.922852,4231.794922,238.000000,3.000000,73.000000,,,,0.000000,4.000000,2.000000,4.000000,4.000000,4.000000,83.333336,,,,,,,,,,,,,,,,,,,
1618540471.256686,0.000000,0.000000,4269.230957,4943.077148,4183.077148,4116.922852,4226.153809,450.000000,3.000000,73.000000,,,,0.000000,4.000000,2.000000,4.000000,4.000000,4.000000,83.333336,,,,,,,,0.000000,0.000000,0.745163,0.079346,0.613037,-0.250244,0.963882,0.177737,-0.238285,1.758726,3.767090,14.219148
1618540471.264502,1.000000,0.000000,4275.384766,4933.846191,4186.153809,4118.461426,4229.743652,450.000000,3.000000,73.000000,,,,0.000000,4.000000,2.000000,4.000000,4.000000,4.000000,83.333336,,,,,,,,,,,,,,,,,,,
1618540471.272317,2.000000,0.000000,4272.820313,4972.820313,4184.102539,4121.538574,4233.846191,16214.000000,3.000000,73.000000,,,,0.000000,4.000000,2.000000,4.000000,4.000000,4.000000,83.333336,,,,,,,,1.000000,0.000000,0.745163,0.079346,0.613037,-0.250244,0.963882,0.176272,-0.237797,2.719346,1.775366,14.352432
1618540471.280233,3.000000,0.000000,4261.538574,4983.077148,4179.487305,4131.282227,4233.846191,450.000000,3.000000,73.000000,,,,0.000000,4.000000,1.000000,4.000000,4.000000,4.000000,75.000000,,,,,,,,,,,,,,,,,,,
1618540471.288049,4.000000,0.000000,4265.641113,4933.846191,4183.077148,4143.589844,4235.384766,138.000000,3.000000,73.000000,,,,0.000000,4.000000,1.000000,4.000000,4.000000,4.000000,75.000000,,,,,,,,2.000000,0.000000,0.745163,0.079346,0.613037,-0.250244,0.968277,0.183597,-0.233402,-0.363911,3.930629,14.412573
1618540471.295865,5.000000,0.000000,4275.384766,4933.846191,4188.717773,4146.153809,4238.461426,450.000000,3.000000,73.000000,,,,0.000000,4.000000,1.000000,4.000000,4.000000,4.000000,75.000000,,,,,,,,,,,,,,,,,,,
1618540471.303681,6.000000,0.000000,4274.358887,4978.974121,4187.692383,4144.102539,4239.487305,16198.000000,3.000000,73.000000,,,,0.000000,4.000000,1.000000,4.000000,4.000000,4.000000,75.000000,,,,,,,,3.000000,0.000000,0.745081,0.079346,0.613037,-0.250488,0.958511,0.189944,-0.235355,2.723064,2.101997,14.227439
1618540471.311497,7.000000,0.000000,4280.000000,4997.948730,4185.641113,4165.128418,4246.666504,450.000000,3.000000,73.000000,,,,0.000000,4.000000,1.000000,4.000000,4.000000,4.000000,75.000000,,,,,,,,,,,,,,,,,,,
1618540471.319312,8.000000,0.000000,4296.922852,4989.743652,4191.282227,4205.128418,4263.077148,450.000000,3.000000,73.000000,,,,0.000000,4.000000,1.000000,4.000000,4.000000,4.000000,75.000000,,,,,,,,4.000000,0.000000,0.745081,0.079346,0.613037,-0.250488,0.958022,0.190433,-0.232425,5.561156,0.336598,14.060818
1618540471.327128,9.000000,0.000000,4298.974121,4973.333496,4194.871582,4226.153809,4266.153809,16065.000000,3.000000,73.000000,,,,0.000000,4.000000,1.000000,4.000000,4.000000,4.000000,75.000000,,,,,,,,,,,,,,,,,,,
1618540471.334944,10.000000,0.000000,4289.743652,4973.846191,4193.333496,4231.794922,4258.974121,450.000000,3.000000,73.000000,,,,0.000000,4.000000,1.000000,4.000000,4.000000,4.000000,75.000000,,,,,,,,5.000000,0.000000,0.744880,0.079346,0.613281,-0.250488,0.966323,0.182620,-0.234379,5.962087,-1.013000,14.030489
1618540471.342860,11.000000,0.000000,4288.205078,4974.358887,4199.487305,4254.871582,4257.436035,16202.000000,3.000000,73.000000,,,,0.000000,4.000000,1.000000,4.000000,4.000000,4.000000,75.000000,,,,,,,,,,,,,,,,,,,
1618540471.350675,12.000000,0.000000,4292.820313,4930.256348,4206.666504,4277.436035,4258.974121,450.000000,3.000000,73.000000,,,,0.000000,4.000000,1.000000,4.000000,4.000000,4.000000,75.000000,,,,,,,,6.000000,0.000000,0.745081,0.079346,0.613037,-0.250488,0.956069,0.188968,-0.239261,6.502370,1.480914,14.003194
1618540471.358491,13.000000,0.000000,4291.282227,4922.051270,4204.615234,4282.051270,4253.333496,450.000000,3.000000,73.000000,,,,0.000000,4.000000,1.000000,4.000000,4.000000,4.000000,75.000000,,,,,,,,,,,,,,,,,,,
1618540471.366306,14.000000,0.000000,4285.641113,4989.230957,4197.948730,4284.102539,4247.179688,450.000000,3.000000,73.000000,,,,0.000000,4.000000,1.000000,4.000000,4.000000,4.000000,75.000000,,,,,,,,7.000000,0.000000,0.745081,0.079346,0.613037,-0.250488,0.953140,0.187015,-0.222660,7.048440,3.845068,14.098258
1618540471.374122,15.000000,0.000000,4274.871582,5006.153809,4191.282227,4282.563965,4244.102539,16202.000000,3.000000,73.000000,,,,0.000000,4.000000,1.000000,4.000000,4.000000,4.000000,75.000000,,,,,,,,,,,,,,,,,,,
1618540471.382038,16.000000,0.000000,4260.000000,4967.179688,4187.692383,4274.871582,4238.461426,0.000000,3.000000,73.000000,,,,0.000000,4.000000,1.000000,4.000000,4.000000,4.000000,75.000000,,,,,,,,8.000000,0.000000,0.744880,0.079346,0.613281,-0.250488,0.966323,0.182620,-0.234379,3.592089,5.853176,14.124002
1618540471.389854,17.000000,0.000000,4252.307617,4958.461426,4189.743652,4270.256348,4236.922852,0.000000,3.000000,73.000000,,,,0.000000,4.000000,1.000000,4.000000,4.000000,4.000000,75.000000,,,,,,,,,,,,,,,,,,,
1618540471.397669,18.000000,0.000000,4254.871582,4964.615234,4191.794922,4270.256348,4240.512695,0.000000,3.000000,73.000000,,,,0.000000,4.000000,1.000000,4.000000,4.000000,4.000000,75.000000,,,,,,,,9.000000,0.000000,0.745081,0.079346,0.613037,-0.250488,0.953140,0.187015,-0.222660,4.429188,7.780104,14.206985
1618540471.405485,19.000000,0.000000,4252.307617,4922.051270,4193.846191,4271.282227,4239.487305,0.000000,3.000000,73.000000,,,,0.000000,4.000000,1.000000,4.000000,4.000000,4.000000,75.000000,,,,,,,,,,,,,,,,,,,
1618540471.413301,20.000000,0.000000,4241.538574,4902.563965,4198.974121,4266.153809,4232.307617,0.000000,3.000000,73.000000,,,,0.000000,4.000000,1.000000,4.000000,4.000000,4.000000,75.000000,,,,,,,,10.000000,0.000000,0.745081,0.079346,0.613037,-0.250488,0.962905,0.177249,-0.237308,5.122761,9.394709,14.162040
1618540471.421117,21.000000,0.000000,4237.948730,4964.102539,4206.666504,4260.512695,4225.641113,0.000000,3.000000,73.000000,,,,0.000000,4.000000,1.000000,4.000000,4.000000,4.000000,75.000000,,,,,,,,,,,,,,,,,,,
1618540471.428933,22.000000,0.000000,4248.205078,4949.743652,4211.282227,4272.307617,4222.051270,0.000000,3.000000,73.000000,,,,0.000000,4.000000,1.000000,4.000000,4.000000,4.000000,75.000000,,,,,,,,11.000000,0.000000,0.745081,0.079346,0.613037,-0.250488,0.956558,0.184085,-0.231937,1.978609,10.847852,14.001959
1618540471.436848,23.000000,0.000000,4257.436035,4842.051270,4206.666504,4284.102539,4218.461426,0.000000,3.000000,73.000000,,,,0.000000,4.000000,1.000000,4.000000,4.000000,4.000000,75.000000,,,,,,,,,,,,,,,,,,,
1618540471.444664,24.000000,0.000000,4257.948730,4845.128418,4201.025879,4284.102539,4223.589844,0.000000,3.000000,73.000000,,,,0.000000,4.000000,1.000000,4.000000,4.000000,4.000000,75.000000,1.000000,66.666664,4.000000,1.000000,4.000000,3.000000,4.000000,12.000000,0.000000,0.745081,0.079346,0.613037,-0.250488,0.965347,0.187015,-0.241703,2.917240,8.447128,14.156962
1618540471.452480,25.000000,0.000000,4256.410156,4943.589844,4194.358887,4283.077148,4234.871582,0.000000,3.000000,73.000000,,,,0.000000,4.000000,1.000000,4.000000,4.000000,4.000000,75.000000,,,,,,,,,,,,,,,,,,,
1618540471.460296,26.000000,0.000000,4252.307617,5001.538574,4182.051270,4289.230957,4235.384766,0.000000,3.000000,73.000000,,,,0.000000,4.000000,1.000000,4.000000,4.000000,4.000000,75.000000,,,,,,,,13.000000,0.000000,0.745081,0.079346,0.613037,-0.250488,0.958022,0.175296,-0.229496,-0.006360,9.935215,14.176835
1618540471.468112,27.000000,0.000000,4250.256348,4996.922852,4173.333496,4300.000000,4235.897461,0.000000,3.000000,73.000000,,,,0.000000,4.000000,1.000000,4.000000,4.000000,4.000000,75.000000,,,,,,,,,,,,,,,,,,,
1618540471.475928,28.000000,0.000000,4255.897461,4952.820313,4178.974121,4298.974121,4245.641113,0.000000,3.000000,73.000000,,,,0.000000,4.000000,1.000000,4.000000,4.000000,4.000000,75.000000,,,,,,,,14.000000,0.000000,0.745081,0.079346,0.613037,-0.250488,0.966323,0.177249,-0.233890,3.104675,7.506125,14.075089
1618540471.483743,29.000000,0.000000,4263.589844,4963.077148,4188.205078,4294.871582,4251.794922,0.000000,3.000000,73.000000,,,,0.000000,4.000000,1.000000,4.000000,4.000000,4.000000,75.000000,,,,,,,,,,,,,,,,,,,
1618540471.491559,30.000000,0.000000,4268.205078,4993.846191,4190.256348,4298.974121,4250.256348,0.000000,3.000000,73.000000,,,,0.000000,4.000000,1.000000,4.000000,4.000000,4.000000,75.000000,,,,,,,,15.000000,0.000000,0.745081,0.079346,0.613037,-0.250488,0.963394,0.191897,-0.249516,3.990515,5.379759,14.222780
1618540471.499375,31.000000,0.000000,4269.743652,4984.615234,4192.820313,4305.641113,4253.333496,0.000000,3.000000,73.000000,,,,0.000000,4.000000,1.000000,4.000000,4.000000,4.000000,75.000000,,,,,,,,,,,,,,,,,,,
1618540471.507291,32.000000,0.000000,4265.128418,4994.358887,4192.307617,4307.179688,4256.410156,0.000000,3.000000,73.000000,,,,0.000000,4.000000,1.000000,4.000000,4.000000,4.000000,75.000000,,,,,,,,16.000000,0.000000,0.745081,0.079346,0.613037,-0.250488,0.969741,0.192874,-0.231449,4.668140,7.354028,14.116440
1618540471.515107,33.000000,0.000000,4257.436035,4989.230957,4183.589844,4305.641113,4249.743652,0.000000,3.000000,73.000000,,,,0.000000,4.000000,1.000000,4.000000,4.000000,4.000000,75.000000,,,,,,,,,,,,,,,,,,,
1618540471.522923,34.000000,0.000000,4257.436035,4944.102539,4179.487305,4300.000000,4243.077148,0.000000,3.000000,73.000000,,,,0.000000,4.000000,1.000000,4.000000,4.000000,4.000000,75.000000,,,,,,,,17.000000,0.000000,0.745282,0.079346,0.612793,-0.250488,0.954604,0.177249,-0.238773,5.278002,5.183057,14.200180
1618540471.530739,35.000000,0.000000,4264.615234,4932.820313,4184.615234,4300.512695,4245.128418,0.000000,3.000000,73.000000,,,,0.000000,4.000000,1.000000,4.000000,4.000000,4.000000,75.000000,,,,,,,,,,,,,,,,,,,
1618540471.538555,36.000000,0.000000,4271.282227,4992.820313,4190.256348,4313.846191,4246.666504,0.000000,3.000000,73.000000,,,,0.000000,4.000000,1.000000,4.000000,4.000000,4.000000,75.000000,,,,,,,,18.000000,0.000000,0.745282,0.079346,0.612793,-0.250488,0.957534,0.191409,-0.237308,2.118326,7.176997,14.275546
1618540471.546372,37.000000,0.000000,4281.025879,5021.025879,4193.333496,4318.461426,4244.102539,0.000000,3.000000,73.000000,,,,0.000000,4.000000,1.000000,4.000000,4.000000,4.000000,75.000000,,,,,,,,,,,,,,,,,,,
1618540471.554188,38.000000,0.000000,4286.153809,4966.153809,4191.794922,4306.666504,4243.589844,0.000000,3.000000,73.000000,,,,0.000000,4.000000,1.000000,4.000000,4.000000,4.000000,75.000000,,,,,,,,19.000000,0.000000,0.745282,0.079346,0.612793,-0.250488,0.960464,0.197757,-0.230961,3.162616,4.963912,14.403192
1618540471.562004,39.000000,0.000000,4277.436035,4922.563965,4188.205078,4300.512695,4242.051270,0.000000,3.000000,73.000000,,,,0.000000,4.000000,1.000000,4.000000,4.000000,4.000000,75.000000,,,,,,,,,,,,,,,,,,,
1618540471.569820,40.000000,0.000000,4269.743652,4945.128418,4184.615234,4306.153809,4234.871582,0.000000,3.000000,73.000000,,,,0.000000,4.000000,1.000000,4.000000,4.000000,4.000000,75.000000,,,,,,,,20.000000,0.000000,0.745400,0.079346,0.612549,-0.250732,0.958022,0.184085,-0.238773,0.035032,6.860136,14.518072
1618540471.577636,41.000000,0.000000,4277.436035,4986.153809,4184.102539,4311.794922,4235.897461,0.000000,3.000000,73.000000,,,,0.000000,4.000000,1.000000,4.000000,4.000000,4.000000,75.000000,,,,,,,,,,,,,,,,,,,
1618540471.585551,42.000000,0.000000,4287.179688,5006.153809,4186.153809,4316.410156,4240.512695,0.000000,3.000000,73.000000,,,,0.000000,4.000000,1.000000,4.000000,4.000000,4.000000,75.000000,,,,,,,,21.000000,0.000000,0.745482,0.079346,0.612549,-0.250488,0.971695,0.189456,-0.234379,-0.805886,4.738554,14.442018
1618540471.593367,43.000000,0.000000,4282.051270,5009.743652,4177.948730,4313.846191,4228.205078,0.000000,3.000000,73.000000,,,,0.000000,4.000000,1.000000,4.000000,4.000000,4.000000,75.000000,,,,,,,,,,,,,,,,,,,
1618540471.601183,44.000000,0.000000,4271.282227,4951.282227,4168.205078,4304.615234,4213.846191,0.000000,3.000000,73.000000,,,,0.000000,4.000000,1.000000,4.000000,4.000000,4.000000,75.000000,,,,,,,,22.000000,0.000000,0.745482,0.079346,0.612549,-0.250488,0.964858,0.176761,-0.236332,2.265471,2.888945,14.433385
1618540471.608998,45.000000,0.000000,4276.410156,4920.000000,4174.358887,4303.077148,4217.948730,0.000000,3.000000,73.000000,,,,0.000000,4.000000,1.000000,4.000000,4.000000,4.000000,75.000000,,,,,,,,,,,,,,,,,,,
1618540471.616814,46.000000,0.000000,4293.846191,4999.487305,4185.641113,4308.205078,4226.153809,0.000000,3.000000,73.000000,,,,0.000000,4.000000,1.000000,4.000000,4.000000,4.000000,75.000000,,,,,,,,23.000000,0.000000,0.745482,0.079346,0.612549,-0.250488,0.954116,0.186526,-0.237308,5.089508,1.164482,14.365800
1618540471.624629,47.000000,0.000000,4300.512695,5010.769043,4187.692383,4312.820313,4229.230957,0.000000,3.000000,73.000000,,,,0.000000,4.000000,1.000000,4.000000,4.000000,4.000000,75.000000,,,,,,,,,,,,,,,,,,,
1618540471.632545,48.000000,0.000000,4298.974121,4941.538574,4187.692383,4314.871582,4234.871582,0.000000,3.000000,73.000000,,,,0.000000,4.000000,1.000000,4.000000,4.000000,4.000000,75.000000,,,,,,,,24.000000,0.000000,0.745482,0.079346,0.612549,-0.250488,0.974136,0.175784,-0.240726,5.657233,3.500463,14.364789
1618540471.640360,49.000000,0.000000,4305.641113,4973.333496,4185.641113,4310.256348,4236.922852,0.000000,3.000000,73.000000,,,,0.000000,4.000000,1.000000,4.000000,4.000000,4.000000,75.000000,,,,,,,,,,,,,,,,,,,
1618540471.648176,50.000000,0.000000,4314.871582,5025.641113,4173.846191,4301.025879,4236.922852,0.000000,3.000000,73.000000,,,,0.000000,4.000000,1.000000,4.000000,4.000000,4.000000,75.000000,,,,,,,,25.000000,0.000000,0.745601,0.079346,0.612305,-0.250732,0.946303,0.194339,-0.236332,6.168187,1.774664,14.363878
1618540471.655992,51.000000,0.000000,4316.410156,4981.025879,4163.589844,4289.743652,4244.615234,0.000000,3.000000,73.000000,,,,0.000000,4.000000,1.000000,4.000000,4.000000,4.000000,75.000000,,,,,,,,,,,,,,,,,,,
1618540471.663908,52.000000,0.000000,4311.282227,4954.358887,4160.000000,4276.922852,4244.102539,0.000000,3.000000,73.000000,,,,0.000000,4.000000,1.000000,4.000000,4.000000,4.000000,75.000000,,,,,,,,26.000000,0.000000,0.745627,0.079102,0.612305,-0.250732,0.968765,0.189456,-0.227543,6.448598,0.041998,14.363059
1618540471.671724,53.000000,0.000000,4302.563965,4966.153809,4156.410156,4270.256348,4227.179688,0.000000,3.000000,73.000000,,,,0.000000,4.000000,1.000000,4.000000,4.000000,4.000000,75.000000,,,,,,,,,,,,,,,,,,,
1618540471.679540,54.000000,0.000000,4297.948730,4975.384766,4155.897461,4272.820313,4223.589844,0.000000,3.000000,73.000000,,,,0.000000,4.000000,1.000000,4.000000,4.000000,4.000000,75.000000,,,,,,,,27.000000,0.000000,0.745601,0.079346,0.612305,-0.250732,0.963882,0.193362,-0.245609,3.052232,2.609859,14.362322
1618540471.687356,55.000000,0.000000,4301.025879,4986.666504,4157.948730,4275.384766,4233.333496,0.000000,3.000000,73.000000,,,,0.000000,4.000000,1.000000,4.000000,4.000000,4.000000,75.000000,,,,,,,,,,,,,,,,,,,
1618540471.695172,56.000000,0.000000,4298.461426,4938.461426,4152.307617,4272.820313,4228.717773,0.000000,3.000000,73.000000,,,,0.000000,4.000000,1.000000,4.000000,4.000000,4.000000,75.000000,,,,,,,,28.000000,0.000000,0.745601,0.079346,0.612305,-0.250732,0.968277,0.188968,-0.259281,1.969409,0.853489,14.301844
1618540471.702988,57.000000,0.000000,4285.641113,4933.333496,4143.589844,4273.846191,4212.820313,0.000000,3.000000,73.000000,,,,0.000000,4.000000,1.000000,4.000000,4.000000,4.000000,75.000000,,,,,,,,,,,,,,,,,,,
1618540471.710804,58.000000,0.000000,4277.948730,4981.025879,4136.922852,4271.282227,4206.666504,0.000000,3.000000,73.000000,,,,0.000000,4.000000,1.000000,4.000000,4.000000,4.000000,75.000000,,,,,,,,29.000000,0.000000,0.745493,0.079590,0.612305,-0.250977,0.981460,0.184573,-0.233890,0.875237,-0.667429,14.247413
1618540471.718620,59.000000,0.000000,4282.051270,4953.846191,4134.358887,4269.230957,4207.692383,0.000000,3.000000,73.000000,,,,0.000000,4.000000,1.000000,4.000000,4.000000,4.000000,75.000000,,,,,,,,,,,,,,,,,,,
1618540471.726436,60.000000,0.000000,4288.717773,4920.512695,4143.077148,4283.589844,4209.230957,0.000000,3.000000,73.000000,,,,0.000000,4.000000,1.000000,4.000000,4.000000,4.000000,75.000000,,,,,,,,30.000000,0.000000,0.745493,0.079590,0.612305,-0.250977,0.951675,0.185061,-0.243168,-0.049701,-2.036255,14.198424
1618540471.734252,61.000000,0.000000,4283.589844,4974.358887,4148.717773,4295.384766,4207.692383,0.000000,3.000000,73.000000,,,,0.000000,4.000000,1.000000,4.000000,4.000000,4.000000,75.000000,,,,,,,,,,,,,,,,,,,
1618540471.742168,62.000000,0.000000,4273.846191,5014.358887,4141.538574,4284.102539,4193.846191,0.000000,3.000000,73.000000,,,,0.000000,4.000000,2.000000,4.000000,4.000000,4.000000,83.333336,,,,,,,,31.000000,0.000000,0.745667,0.079834,0.612061,-0.250977,0.950698,0.184085,-0.233402,-2.796238,0.559985,14.154336
1618540471.749984,63.000000,0.000000,4276.410156,4932.307617,4143.077148,4267.179688,4176.922852,0.000000,3.000000,73.000000,,,,0.000000,4.000000,2.000000,4.000000,4.000000,4.000000,83.333336,,,,,,,,,,,,,,,,,,,
1618540471.757800,64.000000,0.000000,4286.153809,4855.384766,4156.410156,4265.128418,4174.358887,450.000000,3.000000,73.000000,,,,0.000000,4.000000,2.000000,4.000000,4.000000,4.000000,83.333336,,,,,,,,32.000000,0.000000,0.745749,0.079834,0.612061,-0.250732,0.953628,0.186526,-0.233402,-1.559569,-0.871767,14.114655
1618540471.765616,65.000000,0.000000,4294.871582,4898.461426,4162.563965,4271.282227,4183.077148,450.000000,3.000000,73.000000,,,,0.000000,4.000000,2.000000,4.000000,4.000000,4.000000,83.333336,,,,,,,,,,,,,,,,,,,
1618540471.773431,66.000000,0.000000,4300.512695,4921.025879,4161.025879,4257.436035,4188.205078,16199.000000,3.000000,73.000000,,,,0.000000,4.000000,2.000000,4.000000,4.000000,4.000000,83.333336,,,,,,,,33.000000,0.000000,0.745749,0.079834,0.612061,-0.250732,0.965835,0.199222,-0.240238,-0.267120,-2.399605,14.078943
1618540471.781247,67.000000,0.000000,4297.948730,4906.153809,4161.538574,4230.256348,4183.077148,450.000000,3.000000,73.000000,,,,0.000000,4.000000,2.000000,4.000000,4.000000,4.000000,83.333336,,,,,,,,,,,,,,,,,,,
1618540471.789063,68.000000,0.000000,4295.384766,4937.948730,4159.487305,4215.384766,4174.871582,178.000000,3.000000,73.000000,,,,0.000000,4.000000,2.000000,4.000000,4.000000,4.000000,83.333336,,,,,,,,34.000000,0.000000,0.745667,0.079834,0.612061,-0.250977,0.950698,0.184085,-0.233402,-2.991915,0.232970,14.046803
1618540471.796879,69.000000,0.000000,4297.948730,4929.230957,4151.282227,4204.102539,4170.769043,450.000000,3.000000,73.000000,,,,0.000000,4.000000,2.000000,4.000000,4.000000,4.000000,83.333336,,,,,,,,,,,,,,,,,,,
1618540471.804794,70.000000,0.000000,4298.461426,4910.256348,4146.666504,4177.436035,4177.436035,16183.000000,3.000000,73.000000,,,,0.000000,4.000000,2.000000,4.000000,4.000000,4.000000,83.333336,,,,,,,,35.000000,0.000000,0.745805,0.080078,0.612061,-0.250488,0.960952,0.184085,-0.231449,-1.436600,2.542473,14.197322
1618540471.812610,71.000000,0.000000,4298.974121,4970.256348,4147.692383,4146.153809,4194.358887,450.000000,3.000000,73.000000,,,,0.000000,4.000000,2.000000,4.000000,4.000000,4.000000,83.333336,,,,,,,,,,,,,,,,,,,
1618540471.820525,72.000000,0.000000,4298.974121,4992.820313,4145.641113,4122.563965,4200.000000,450.000000,3.000000,73.000000,,,,0.000000,4.000000,2.000000,4.000000,4.000000,4.000000,83.333336,,,,,,,,36.000000,0.000000,0.745805,0.080078,0.612061,-0.250488,0.955581,0.182620,-0.236332,-0.276079,4.920101,14.392605
1618540471.828341,73.000000,0.000000,4297.948730,4965.128418,4137.436035,4101.538574,4187.692383,16065.000000,3.000000,73.000000,,,,0.000000,4.000000,2.000000,4.000000,4.000000,4.000000,83.333336,,,,,,,,,,,,,,,,,,,
1618540471.836257,74.000000,0.000000,4302.563965,4959.487305,4129.743652,4083.589844,4181.538574,450.000000,3.000000,73.000000,,,,0.000000,4.000000,2.000000,4.000000,4.000000,4.000000,83.333336,,,,,,,,37.000000,0.000000,0.745805,0.080078,0.612061,-0.250488,0.957046,0.183108,-0.232914,2.802112,6.880521,14.329098
1618540471.844072,75.000000,0.000000,4307.179688,4945.128418,4129.230957,4073.333252,4184.102539,16214.000000,3.000000,73.000000,,,,0.000000,4.000000,2.000000,4.000000,4.000000,4.000000,83.333336,,,,,,,,,,,,,,,,,,,
1618540471.851988,76.000000,0.000000,4303.077148,4936.410156,4128.717773,4058.974365,4173.333496,450.000000,3.000000,73.000000,,,,0.000000,4.000000,2.000000,4.000000,4.000000,4.000000,83.333336,,,,,,,,38.000000,0.000000,0.745749,0.079834,0.612061,-0.250732,0.960464,0.172854,-0.241703,1.684486,4.697085,14.152310
1618540471.859804,77.000000,0.000000,4291.282227,4952.307617,4123.589844,4038.974365,4156.922852,450.000000,3.000000,73.000000,,,,0.000000,4.000000,2.000000,4.000000,4.000000,4.000000,83.333336,,,,,,,,,,,,,,,,,,,
1618540471.867620,78.000000,0.000000,4289.743652,4934.358887,4131.282227,4036.410156,4151.282227,450.000000,3.000000,73.000000,,,,0.000000,4.000000,2.000000,4.000000,4.000000,4.000000,83.333336,,,,,,,,39.000000,0.000000,0.745749,0.079834,0.612061,-0.250732,0.970230,0.182620,-0.232914,-1.056023,6.560176,14.112833
1618540471.875435,79.000000,0.000000,4302.563965,4893.333496,4145.641113,4044.102539,4149.743652,16214.000000,3.000000,73.000000,,,,0.000000,4.000000,2.000000,4.000000,4.000000,4.000000,83.333336,,,,,,,,,,,,,,,,,,,
1618540471.883251,80.000000,0.000000,4304.102539,4874.358887,4147.692383,4046.153809,4142.563965,450.000000,3.000000,73.000000,,,,0.000000,4.000000,2.000000,4.000000,4.000000,4.000000,83.333336,,,,,,,,40.000000,0.000000,0.745749,0.079834,0.612061,-0.250732,0.956069,0.177249,-0.243656,0.006625,4.348958,14.137118
1618540471.891067,81.000000,0.000000,4298.461426,4888.717773,4138.461426,4057.948730,4137.948730,450.000000,3.000000,73.000000,,,,0.000000,4.000000,2.000000,4.000000,4.000000,4.000000,83.333336,,,,,,,,,,,,,,,,,,,
1618540471.898883,82.000000,0.000000,4303.589844,4948.205078,4130.769043,4077.435791,4144.102539,450.000000,3.000000,73.000000,,,,0.000000,4.000000,2.000000,4.000000,4.000000,4.000000,83.333336,,,,,,,,41.000000,0.000000,0.745667,0.079834,0.612061,-0.250977,0.967788,0.184573,-0.238285,0.963008,6.246862,14.158976
1618540471.906799,83.000000,0.000000,4309.743652,4980.000000,4122.051270,4076.923096,4152.820313,16214.000000,3.000000,73.000000,,,,0.000000,4.000000,2.000000,4.000000,4.000000,4.000000,83.333336,,,,,,,,,,,,,,,,,,,
1618540471.914615,84.000000,0.000000,4301.025879,4925.641113,4104.102539,4057.435791,4149.743652,450.000000,3.000000,73.000000,,,,0.000000,4.000000,2.000000,4.000000,4.000000,4.000000,83.333336,,,,,,,,42.000000,0.000000,0.745867,0.079834,0.611816,-0.250977,0.944839,0.180667,-0.241215,4.036922,4.186607,14.178646
1618540471.922431,85.000000,0.000000,4290.769043,4938.974121,4098.974121,4048.718018,4137.436035,450.000000,3.000000,73.000000,,,,0.000000,4.000000,2.000000,4.000000,4.000000,4.000000,83.333336,,,,,,,,,,,,,,,,,,,
1618540471.930247,86.000000,0.000000,4287.179688,5016.410156,4104.615234,4050.256348,4129.743652,450.000000,3.000000,73.000000,,,,0.000000,4.000000,2.000000,4.000000,4.000000,4.000000,83.333336,,,,,,,,43.000000,0.000000,0.745785,0.079834,0.611816,-0.251221,0.960952,0.195315,-0.248539,4.829537,6.160561,14.076720
1618540471.938063,87.000000,0.000000,4284.102539,5010.769043,4107.179688,4033.333252,4128.717773,16214.000000,3.000000,73.000000,,,,0.000000,4.000000,2.000000,4.000000,4.000000,4.000000,83.333336,,,,,,,,,,,,,,,,,,,
1618540471.945879,88.000000,0.000000,4282.051270,4947.179688,4118.461426,4016.923096,4129.230957,450.000000,3.000000,73.000000,,,,0.000000,4.000000,2.000000,4.000000,4.000000,4.000000,83.333336,1.000000,66.666664,4.000000,1.000000,4.000000,3.000000,4.000000,44.000000,0.000000,0.745785,0.079834,0.611816,-0.251221,0.969741,0.183108,-0.227543,5.423260,3.989305,14.044802
1618540471.953695,89.000000,0.000000,4281.025879,4931.794922,4129.743652,4027.179443,4126.153809,450.000000,3.000000,73.000000,,,,0.000000,4.000000,2.000000,4.000000,4.000000,4.000000,83.333336,,,,,,,,,,,,,,,,,,,
1618540471.961511,90.000000,0.000000,4276.922852,4955.384766,4126.666504,4037.948730,4114.358887,450.000000,3.000000,73.000000,,,,0.000000,4.000000,2.000000,4.000000,4.000000,4.000000,83.333336,,,,,,,,45.000000,0.000000,0.745985,0.079834,0.611572,-0.251221,0.967788,0.186526,-0.243168,3.983703,5.982989,14.016074
1618540471.969327,91.000000,0.000000,4269.230957,4904.615234,4126.153809,4026.666748,4104.615234,16214.000000,3.000000,73.000000,,,,0.000000,4.000000,2.000000,4.000000,4.000000,4.000000,83.333336,,,,,,,,,,,,,,,,,,,
1618540471.977144,92.000000,0.000000,4270.769043,4830.769043,4131.794922,4020.000000,4100.000000,450.000000,3.000000,73.000000,,,,0.000000,4.000000,2.000000,4.000000,4.000000,4.000000,83.333336,,,,,,,,46.000000,0.000000,0.746011,0.079590,0.611572,-0.251221,0.947768,0.187503,-0.237797,0.893642,7.777305,14.050035
1618540471.985060,93.000000,0.000000,4282.563965,4885.641113,4123.077148,4033.333252,4098.974121,450.000000,3.000000,73.000000,,,,0.000000,4.000000,2.000000,4.000000,4.000000,4.000000,83.333336,,,,,,,,,,,,,,,,,,,
1618540471.992876,94.000000,0.000000,4288.717773,5002.563965,4108.205078,4042.564209,4109.743652,450.000000,3.000000,73.000000,,,,0.000000,4.000000,2.000000,4.000000,4.000000,4.000000,83.333336,,,,,,,,47.000000,0.000000,0.746011,0.079590,0.611572,-0.251221,0.959976,0.187991,-0.241215,3.795046,5.623821,14.020785
1618540472.000692,95.000000,0.000000,4286.666504,4993.846191,4104.615234,4035.897461,4118.461426,16214.000000,3.000000,73.000000,,,,0.000000,4.000000,2.000000,4.000000,4.000000,4.000000,83.333336,,,,,,,,,,,,,,,,,,,
1618540472.008508,96.000000,0.000000,4283.589844,4913.333496,4111.794922,4020.512939,4108.205078,450.000000,3.000000,73.000000,,,,0.000000,4.000000,2.000000,4.000000,4.000000,4.000000,83.333336,,,,,,,,48.000000,0.000000,0.745985,0.079834,0.611572,-0.251221,0.967788,0.186526,-0.243168,2.518311,7.454054,13.994460
1618540472.016324,97.000000,0.000000,4283.077148,4941.538574,4120.000000,4015.897461,4095.897461,450.000000,3.000000,73.000000,,,,0.000000,4.000000,2.000000,4.000000,4.000000,4.000000,83.333336,,,,,,,,,,,,,,,,,,,
1618540472.024140,98.000000,0.000000,4282.051270,4990.256348,4119.487305,4027.692383,4087.692383,450.000000,3.000000,73.000000,,,,0.000000,4.000000,2.000000,4.000000,4.000000,4.000000,83.333336,,,,,,,,49.000000,0.000000,0.746011,0.079590,0.611572,-0.251221,0.967788,0.185061,-0.235355,1.369249,9.101263,13.970768
1618540472.031956,99.000000,0.000000,4275.897461,4935.384766,4116.410156,4027.692383,4077.435791,16214.000000,3.000000,73.000000,,,,0.000000,4.000000,2.000000,4.000000,4.000000,4.000000,83.333336,,,,,,,,,,,,,,,,,,,
1618540472.039772,100.000000,0.000000,4270.769043,4890.256348,4122.563965,4013.846191,4067.179443,450.000000,3.000000,73.000000,,,,0.000000,4.000000,2.000000,4.000000,4.000000,4.000000,83.333336,,,,,,,,50.000000,0.000000,0.745985,0.079834,0.611572,-0.251221,0.970718,0.188479,-0.237308,4.163277,6.875199,14.009260
1618540472.047588,101.000000,0.000000,4273.846191,4924.102539,4128.205078,4018.461426,4066.666748,450.000000,3.000000,73.000000,,,,0.000000,4.000000,2.000000,4.000000,4.000000,4.000000,83.333336,,,,,,,,,,,,,,,,,,,
1618540472.055504,102.000000,0.000000,4283.589844,4950.256348,4120.000000,4035.384521,4075.384521,450.000000,3.000000,73.000000,,,,0.000000,4.000000,2.000000,4.000000,4.000000,4.000000,83.333336,,,,,,,,51.000000,0.000000,0.746067,0.079834,0.611572,-0.250977,0.966812,0.185550,-0.240726,4.763811,8.520478,14.223349
1618540472.063320,103.000000,0.000000,4278.974121,4941.025879,4099.487305,4030.769287,4076.923096,16214.000000,3.000000,73.000000,,,,0.000000,4.000000,2.000000,4.000000,4.000000,4.000000,83.333336,,,,,,,,,,,,,,,,,,,
1618540472.071136,104.000000,0.000000,4259.487305,4914.871582,4086.153809,4015.384521,4069.230713,450.000000,3.000000,73.000000,,,,0.000000,4.000000,2.000000,4.000000,4.000000,4.000000,83.333336,,,,,,,,52.000000,0.000000,0.746067,0.079834,0.611572,-0.250977,0.963882,0.182620,-0.242191,5.483737,6.232862,14.176767
1618540472.078952,105.000000,0.000000,4257.436035,4918.461426,4093.333252,4021.538574,4073.333252,450.000000,3.000000,73.000000,,,,0.000000,4.000000,2.000000,4.000000,4.000000,4.000000,83.333336,,,,,,,,,,,,,,,,,,,
1618540472.086768,106.000000,0.000000,4269.230957,4970.256348,4105.641113,4030.769287,4082.564209,450.000000,3.000000,73.000000,,,,0.000000,4.000000,2.000000,4.000000,4.000000,4.000000,83.333336,,,,,,,,53.000000,0.000000,0.746067,0.079834,0.611572,-0.250977,0.949722,0.187015,-0.229496,6.071855,8.062005,14.194659
1618540472.094585,107.000000,0.000000,4264.102539,4945.641113,4106.153809,4014.871826,4070.256348,16214.000000,3.000000,73.000000,,,,0.000000,4.000000,2.000000,4.000000,4.000000,4.000000,83.333336,,,,,,,,,,,,,,,,,,,
1618540472.102401,108.000000,0.000000,4253.333496,4890.769043,4102.563965,4005.641113,4052.820557,450.000000,3.000000,73.000000,,,,0.000000,4.000000,2.000000,4.000000,4.000000,4.000000,83.333336,,,,,,,,54.000000,0.000000,0.745867,0.079834,0.611816,-0.250977,0.951186,0.184573,-0.236820,6.601161,5.939867,14.330393
1618540472.110217,109.000000,0.000000,4263.077148,4955.384766,4091.794922,4024.102539,4062.564209,450.000000,3.000000,73.000000,,,,0.000000,4.000000,2.000000,4.000000,4.000000,4.000000,83.333336,,,,,,,,,,,,,,,,,,,
1618540472.118133,110.000000,0.000000,4267.692383,4982.563965,4072.307617,4033.846191,4070.256348,450.000000,3.000000,73.000000,,,,0.000000,4.000000,2.000000,4.000000,4.000000,4.000000,83.333336,,,,,,,,55.000000,0.000000,0.745867,0.079834,0.611816,-0.250977,0.956558,0.177249,-0.229984,8.991629,3.790681,14.213292
1618540472.125949,111.000000,0.000000,4247.692383,4882.051270,4075.897461,4015.897461,4052.307617,16214.000000,3.000000,73.000000,,,,0.000000,4.000000,2.000000,4.000000,4.000000,4.000000,83.333336,,,,,,,,,,,,,,,,,,,
1618540472.133765,112.000000,0.000000,4240.512695,4892.820313,4100.000000,3999.487061,4036.923096,450.000000,3.000000,73.000000,,,,0.000000,4.000000,2.000000,4.000000,4.000000,4.000000,83.333336,,,,,,,,56.000000,0.000000,0.745893,0.079590,0.611816,-0.250977,0.964858,0.192874,-0.244633,5.400774,5.684597,14.347162
1618540472.141581,113.000000,0.000000,4257.948730,4984.102539,4112.820313,4010.256348,4037.948730,450.000000,3.000000,73.000000,,,,0.000000,4.000000,2.000000,4.000000,4.000000,4.000000,83.333336,,,,,,,,,,,,,,,,,,,
1618540472.149397,114.000000,0.000000,4264.102539,4930.769043,4101.025879,4027.692383,4041.538574,450.000000,3.000000,73.000000,,,,0.000000,4.000000,2.000000,4.000000,4.000000,4.000000,83.333336,,,,,,,,57.000000,0.000000,0.745893,0.079590,0.611816,-0.250977,0.966812,0.183597,-0.245121,5.937374,3.620753,14.288199
1618540472.157213,115.000000,0.000000,4251.794922,4909.743652,4078.461426,4024.615479,4040.000000,16214.000000,3.000000,73.000000,,,,0.000000,4.000000,2.000000,4.000000,4.000000,4.000000,83.333336,,,,,,,,,,,,,,,,,,,
1618540472.165029,116.000000,0.000000,4238.974121,5002.563965,4068.718018,4010.769287,4028.205078,450.000000,3.000000,73.000000,,,,0.000000,4.000000,2.000000,4.000000,4.000000,4.000000,83.333336,,,,,,,,58.000000,0.000000,0.745893,0.079590,0.611816,-0.250977,0.969253,0.186038,-0.238285,2.592130,5.531661,14.414578
1618540472.172845,117.000000,0.000000,4233.846191,4974.358887,4077.435791,4002.564209,4010.256348,450.000000,3.000000,73.000000,,,,0.000000,4.000000,2.000000,4.000000,4.000000,4.000000,83.333336,,,,,,,,,,,,,,,,,,,
1618540472.180661,118.000000,0.000000,4236.410156,4887.692383,4089.743652,4008.205078,4009.743652,450.000000,3.000000,73.000000,,,,0.000000,4.000000,2.000000,4.000000,4.000000,4.000000,83.333336,,,,,,,,59.000000,0.000000,0.745719,0.079346,0.612061,-0.250977,0.970718,0.178714,-0.230961,6.101285,3.662557,14.468505
1618540472.188477,119.000000,0.000000,4243.589844,4926.153809,4087.692383,4032.820557,4026.153809,16214.000000,3.000000,73.000000,,,,0.000000,4.000000,2.000000,4.000000,4.000000,4.000000,83.333336,,,,,,,,,,,,,,,,,,,
1618540472.196393,120.000000,0.000000,4241.025879,4987.179688,4076.923096,4043.076904,4026.666748,450.000000,3.000000,73.000000,,,,0.000000,4.000000,2.000000,4.000000,4.000000,4.000000,83.333336,,,,,,,,60.000000,0.000000,0.745719,0.079346,0.612061,-0.250977,0.963394,0.191897,-0.240726,6.687464,5.748731,14.397408
1618540472.204209,121.000000,0.000000,4229.230957,4958.461426,4085.641113,4018.974365,4012.307617,450.000000,3.000000,73.000000,,,,0.000000,4.000000,2.000000,4.000000,4.000000,4.000000,83.333336,,,,,,,,,,,,,,,,,,,
1618540472.212025,122.000000,0.000000,4237.436035,4882.563965,4108.717773,4015.897461,4015.384521,450.000000,3.000000,73.000000,,,,0.000000,4.000000,2.000000,4.000000,4.000000,4.000000,83.333336,,,,,,,,61.000000,0.000000,0.745719,0.079346,0.612061,-0.250977,0.965835,0.193362,-0.232914,6.975763,7.566473,14.572682
1618540472.219842,123.000000,0.000000,4254.358887,4877.436035,4108.205078,4043.076904,4030.256348,16214.000000,3.000000,73.000000,,,,0.000000,4.000000,2.000000,4.000000,4.000000,4.000000,83.333336,,,,,,,,,,,,,,,,,,,
1618540472.227658,124.000000,0.000000,4242.051270,4974.358887,4081.538574,4051.794922,4031.794922,450.000000,3.000000,73.000000,,,,0.000000,4.000000,2.000000,4.000000,4.000000,4.000000,83.333336,,,,,,,,62.000000,0.000000,0.745719,0.079346,0.612061,-0.250977,0.958511,0.179690,-0.246098,7.474494,5.434072,14.550982
1618540472.235474,125.000000,0.000000,4227.692383,5005.641113,4073.333252,4039.487061,4028.718018,450.000000,3.000000,73.000000,,,,0.000000,4.000000,2.000000,4.000000,4.000000,4.000000,83.333336,,,,,,,,,,,,,,,,,,,
1618540472.243290,126.000000,0.000000,4235.384766,4911.282227,4095.384521,4031.794922,4026.666748,450.000000,3.000000,73.000000,,,,0.000000,4.000000,2.000000,4.000000,4.000000,4.000000,83.333336,,,,,,,,63.000000,0.000000,0.745919,0.079346,0.611816,-0.250977,0.953628,0.196780,-0.235355,7.923352,7.223464,14.531453
1618540472.251106,127.000000,0.000000,4236.410156,4864.615234,4100.000000,4046.153809,4019.487061,238.000000,3.000000,73.000000,,,,0.000000,4.000000,2.000000,4.000000,4.000000,4.000000,83.333336,,,,,,,,,,,,,,,,,,,
1618540472.258922,0.000000,0.000000,4223.589844,4918.461426,4074.358887,4066.153809,4015.384521,450.000000,3.000000,73.000000,,,,0.000000,4.000000,2.000000,4.000000,4.000000,4.000000,83.333336,,,,,,,,0.000000,0.000000,0.745893,0.079590,0.611816,-0.250977,0.975601,0.177737,-0.250492,10.241416,5.125364,14.454062
1618540472.266838,1.000000,0.000000,4218.974121,4955.384766,4070.769287,4066.153809,4009.230713,450.000000,3.000000,73.000000,,,,0.000000,4.000000,2.000000,4.000000,4.000000,4.000000,83.333336,,,,,,,,,,,,,,,,,,,
1618540472.274653,2.000000,0.000000,4221.538574,4932.820313,4097.948730,4066.666748,4000.000000,16217.000000,3.000000,73.000000,,,,0.000000,4.000000,2.000000,4.000000,4.000000,4.000000,83.333336,,,,,,,,1.000000,0.000000,0.745893,0.079590,0.611816,-0.250977,0.964858,0.187991,-0.238285,8.439674,3.177259,14.384409
1618540472.282469,3.000000,0.000000,4221.025879,4941.025879,4107.179688,4100.000000,4003.589844,450.000000,3.000000,73.000000,,,,0.000000,4.000000,2.000000,4.000000,4.000000,4.000000,83.333336,,,,,,,,,,,,,,,,,,,
1618540472.290285,4.000000,0.000000,4220.000000,4962.051270,4091.794922,4123.077148,4013.846191,164.000000,3.000000,73.000000,,,,0.000000,4.000000,2.000000,4.000000,4.000000,4.000000,83.333336,,,,,,,,2.000000,0.000000,0.745775,0.079590,0.612061,-0.250732,0.958511,0.193851,-0.235355,10.706106,1.304334,14.501167
1618540472.298101,5.000000,0.000000,4217.948730,4950.769043,4085.641113,4105.641113,4015.384521,450.000000,3.000000,73.000000,,,,0.000000,4.000000,2.000000,4.000000,4.000000,4.000000,83.333336,,,,,,,,,,,,,,,,,,,
1618540472.305917,6.000000,0.000000,4218.974121,4949.743652,4093.333252,4106.153809,4010.256348,16199.000000,3.000000,73.000000,,,,0.000000,4.000000,2.000000,4.000000,4.000000,4.000000,83.333336,,,,,,,,3.000000,0.000000,0.745749,0.079834,0.612061,-0.250732,0.978531,0.187991,-0.240238,10.712172,-0.321484,14.486619
1618540472.313733,7.000000,0.000000,4220.000000,4954.871582,4097.948730,4134.871582,4003.076904,450.000000,3.000000,73.000000,,,,0.000000,4.000000,2.000000,4.000000,4.000000,4.000000,83.333336,,,,,,,,,,,,,,,,,,,
1618540472.321549,8.000000,0.000000,4215.384766,4932.307617,4089.743652,4139.487305,4002.564209,450.000000,3.000000,73.000000,,,,0.000000,4.000000,2.000000,4.000000,4.000000,4.000000,83.333336,,,,,,,,4.000000,0.000000,0.745749,0.079834,0.612061,-0.250732,0.968277,0.177249,-0.245609,10.777447,-1.844535,14.593157
1618540472.329464,9.000000,0.000000,4218.461426,4908.205078,4075.384521,4130.769043,4013.846191,16095.000000,3.000000,73.000000,,,,0.000000,4.000000,2.000000,4.000000,4.000000,4.000000,83.333336,,,,,,,,,,,,,,,,,,,
1618540472.337280,10.000000,0.000000,4225.641113,4952.820313,4076.923096,4140.512695,4019.487061,450.000000,3.000000,73.000000,,,,0.000000,4.000000,2.000000,4.000000,4.000000,4.000000,83.333336,,,,,,,,5.000000,0.000000,0.745775,0.079590,0.612061,-0.250732,0.958511,0.193851,-0.235355,7.008011,0.732533,14.569410
1618540472.345096,11.000000,0.000000,4217.436035,4981.538574,4094.871826,4146.153809,4015.384521,16227.000000,3.000000,73.000000,,,,0.000000,4.000000,2.000000,4.000000,4.000000,4.000000,83.333336,,,,,,,,,,,,,,,,,,,
1618540472.352912,12.000000,0.000000,4206.153809,4903.077148,4089.743652,4134.358887,4012.307617,450.000000,3.000000,73.000000,,,,0.000000,4.000000,2.000000,4.000000,4.000000,4.000000,83.333336,,,,,,,,6.000000,0.000000,0.745749,0.079834,0.612061,-0.250732,0.968277,0.177249,-0.245609,7.443702,-0.895920,14.667668
1618540472.360728,13.000000,0.000000,4197.948730,4893.846191,4062.051270,4136.410156,4009.230713,450.000000,3.000000,73.000000,,,,0.000000,4.000000,2.000000,4.000000,4.000000,4.000000,83.333336,,,,,,,,,,,,,,,,,,,
1618540472.368543,14.000000,0.000000,4180.512695,4988.205078,4061.538574,4147.179688,4006.666748,450.000000,3.000000,73.000000,,,,0.000000,4.000000,2.000000,4.000000,4.000000,4.000000,83.333336,,,,,,,,7.000000,0.000000,0.745749,0.079834,0.612061,-0.250732,0.964858,0.191897,-0.228031,4.007640,1.586287,14.636471
1618540472.376359,15.000000,0.000000,4172.820313,4958.974121,4091.794922,4144.102539,4006.666748,16227.000000,3.000000,73.000000,,,,0.000000,4.000000,2.000000,4.000000,4.000000,4.000000,83.333336,,,,,,,,,,,,,,,,,,,
1618540472.384175,16.000000,0.000000,4187.692383,4874.358887,4104.102539,4143.077148,4008.718018,0.000000,3.000000,73.000000,,,,0.000000,4.000000,2.000000,4.000000,4.000000,4.000000,83.333336,,,,,,,,8.000000,0.000000,0.745831,0.079834,0.612061,-0.250488,0.952651,0.190921,-0.243168,6.597644,3.820273,14.548576
1618540472.392091,17.000000,0.000000,4192.820313,4934.871582,4086.153809,4148.717773,4019.487061,0.000000,3.000000,73.000000,,,,0.000000,4.000000,2.000000,4.000000,4.000000,4.000000,83.333336,,,,,,,,,,,,,,,,,,,
1618540472.399907,18.000000,0.000000,4178.974121,4964.102539,4076.410156,4143.077148,4024.615479,0.000000,3.000000,73.000000,,,,0.000000,4.000000,2.000000,4.000000,4.000000,4.000000,83.333336,,,,,,,,9.000000,0.000000,0.745805,0.080078,0.612061,-0.250488,0.956558,0.194827,-0.235355,7.014556,2.241938,14.589104
