title:S35, start timestamp:1618540668.219924, stop timestamp:1618540778.846407, headset type:INSIGHT, headset serial:A2D202F3, headset firmware:932, channels:40, sampling rate:eeg_128;mot_64, samples:14156     , version:2.1, 
Timestamp,EEG.Counter,EEG.Interpolated,EEG.AF3,EEG.T7,EEG.Pz,EEG.T8,EEG.AF4,EEG.RawCq,EEG.Battery,EEG.BatteryPercent,MarkerIndex,MarkerType,MarkerValueInt,EEG.MarkerHardware,CQ.AF3,CQ.T7,CQ.Pz,CQ.T8,CQ.AF4,CQ.Overall,EQ.SampleRateQuality,EQ.OVERALL,EQ.AF3,EQ.T7,EQ.Pz,EQ.T8,EQ.AF4,MOT.CounterMems,MOT.InterpolatedMems,MOT.Q0,MOT.Q1,MOT.Q2,MOT.Q3,MOT.AccX,MOT.AccY,MOT.AccZ,MOT.MagX,MOT.MagY,MOT.MagZ
1618540668.219924,117.000000,0.000000,4260.512695,4966.153809,4185.128418,4208.717773,4070.769287,450.000000,3.000000,73.000000,,,,0.000000,4.000000,2.000000,4.000000,4.000000,4.000000,83.333336,,,,,,,,,,,,,,,,,,,
1618540668.227639,118.000000,0.000000,4271.794922,4961.538574,4196.922852,4215.384766,4088.205078,450.000000,3.000000,73.000000,,,,0.000000,4.000000,2.000000,4.000000,4.000000,4.000000,83.333336,,,,,,,,59.000000,0.000000,0.738870,0.032959,0.618408,-0.265625,0.942397,0.292973,-0.240238,-0.492703,3.428902,13.115012
1618540668.235455,119.000000,0.000000,4278.461426,4928.205078,4214.358887,4216.410156,4101.538574,16245.000000,3.000000,73.000000,,,,0.000000,4.000000,2.000000,4.000000,4.000000,4.000000,83.333336,,,,,,,,,,,,,,,,,,,
1618540668.243270,120.000000,0.000000,4276.410156,4932.307617,4211.282227,4211.282227,4100.000000,450.000000,3.000000,73.000000,,,,0.000000,4.000000,2.000000,4.000000,4.000000,4.000000,83.333336,,,,,,,,60.000000,0.000000,0.738851,0.032715,0.618652,-0.265137,0.944839,0.289555,-0.236332,-1.340663,1.530812,13.119450
1618540668.251086,121.000000,0.000000,4282.051270,4957.948730,4194.871582,4207.692383,4106.153809,450.000000,3.000000,73.000000,,,,0.000000,4.000000,2.000000,4.000000,4.000000,4.000000,83.333336,,,,,,,,,,,,,,,,,,,
1618540668.258901,122.000000,0.000000,4291.794922,4897.436035,4189.743652,4206.153809,4119.487305,450.000000,3.000000,73.000000,,,,0.000000,4.000000,2.000000,4.000000,4.000000,4.000000,83.333336,,,,,,,,61.000000,0.000000,0.738975,0.033203,0.618164,-0.265869,0.938003,0.276860,-0.235843,-4.077734,3.650715,13.063627
1618540668.266716,123.000000,0.000000,4293.333496,4855.384766,4193.333496,4214.871582,4122.051270,16245.000000,3.000000,73.000000,,,,0.000000,4.000000,2.000000,4.000000,4.000000,4.000000,83.333336,,,,,,,,,,,,,,,,,,,
1618540668.274432,124.000000,0.000000,4294.358887,4924.615234,4197.436035,4227.179688,4127.179688,450.000000,3.000000,73.000000,,,,0.000000,4.000000,2.000000,4.000000,4.000000,4.000000,83.333336,,,,,,,,62.000000,0.000000,0.738851,0.032715,0.618652,-0.265137,0.944839,0.289555,-0.236332,-4.567192,1.730444,13.073202
1618540668.282247,125.000000,0.000000,4296.922852,4954.871582,4200.000000,4222.563965,4131.282227,450.000000,3.000000,73.000000,,,,0.000000,4.000000,2.000000,4.000000,4.000000,4.000000,83.333336,,,,,,,,,,,,,,,,,,,
1618540668.290062,126.000000,0.000000,4302.051270,4886.153809,4200.000000,4214.871582,4125.641113,450.000000,3.000000,73.000000,,,,0.000000,4.000000,2.000000,4.000000,4.000000,4.000000,83.333336,,,,,,,,63.000000,0.000000,0.738756,0.032227,0.618896,-0.264893,0.938979,0.280278,-0.227054,-6.981610,3.830383,13.022005
1618540668.297878,127.000000,0.000000,4304.615234,4865.641113,4200.512695,4222.051270,4127.179688,238.000000,3.000000,73.000000,,,,0.000000,4.000000,2.000000,4.000000,4.000000,4.000000,83.333336,,,,,,,,,,,,,,,,,,,
1618540668.305693,0.000000,0.000000,4289.743652,4923.077148,4201.538574,4231.282227,4125.128418,450.000000,3.000000,73.000000,,,,0.000000,4.000000,2.000000,4.000000,4.000000,4.000000,83.333336,,,,,,,,0.000000,0.000000,0.738650,0.031982,0.619141,-0.264648,0.941909,0.275395,-0.229984,-5.266588,2.011776,13.095558
1618540668.313509,1.000000,0.000000,4277.436035,4930.769043,4202.051270,4232.307617,4115.897461,450.000000,3.000000,73.000000,,,,0.000000,4.000000,2.000000,4.000000,4.000000,4.000000,83.333336,,,,,,,,,,,,,,,,,,,
1618540668.321324,2.000000,0.000000,4290.256348,4911.282227,4203.589844,4229.230957,4121.025879,16201.000000,3.000000,73.000000,,,,0.000000,4.000000,2.000000,4.000000,4.000000,4.000000,83.333336,,,,,,,,1.000000,0.000000,0.738748,0.031738,0.619141,-0.264404,0.942885,0.272465,-0.234867,-3.902514,0.315215,13.161756
1618540668.329139,3.000000,0.000000,4300.512695,4897.948730,4206.153809,4228.717773,4126.666504,450.000000,3.000000,73.000000,,,,0.000000,4.000000,2.000000,4.000000,4.000000,4.000000,83.333336,,,,,,,,,,,,,,,,,,,
1618540668.336955,4.000000,0.000000,4290.769043,4875.384766,4202.051270,4232.307617,4119.487305,297.000000,3.000000,73.000000,,,,0.000000,4.000000,2.000000,4.000000,4.000000,4.000000,83.333336,,,,,,,,2.000000,0.000000,0.738553,0.031494,0.619385,-0.264404,0.951186,0.279301,-0.244633,-2.375771,2.616492,13.400780
1618540668.344670,5.000000,0.000000,4289.230957,4900.512695,4202.051270,4231.282227,4121.538574,450.000000,3.000000,73.000000,,,,0.000000,4.000000,2.000000,4.000000,4.000000,4.000000,83.333336,,,,,,,,,,,,,,,,,,,
1618540668.352485,6.000000,0.000000,4304.102539,4938.974121,4208.205078,4225.128418,4133.846191,16109.000000,3.000000,73.000000,,,,0.000000,4.000000,2.000000,4.000000,4.000000,4.000000,83.333336,,,,,,,,3.000000,0.000000,0.738436,0.031494,0.619629,-0.264160,0.928725,0.268559,-0.246098,-1.240963,4.627827,13.376639
1618540668.360301,7.000000,0.000000,4312.820313,4877.948730,4206.153809,4226.666504,4139.487305,450.000000,3.000000,73.000000,,,,0.000000,4.000000,2.000000,4.000000,4.000000,4.000000,83.333336,,,,,,,,,,,,,,,,,,,
1618540668.368116,8.000000,0.000000,4315.897461,4846.153809,4207.179688,4231.794922,4144.615234,450.000000,3.000000,73.000000,,,,0.000000,4.000000,2.000000,4.000000,4.000000,4.000000,83.333336,,,,,,,,4.000000,0.000000,0.738446,0.031250,0.619629,-0.264160,0.947768,0.287602,-0.238773,-0.279452,2.669660,13.414729
1618540668.375932,9.000000,0.000000,4323.077148,4905.641113,4219.487305,4237.948730,4151.282227,16071.000000,3.000000,73.000000,,,,0.000000,4.000000,2.000000,4.000000,4.000000,4.000000,83.333336,,,,,,,,,,,,,,,,,,,
1618540668.383747,10.000000,0.000000,4324.102539,4869.230957,4229.743652,4242.051270,4153.846191,450.000000,3.000000,73.000000,,,,0.000000,4.000000,2.000000,4.000000,4.000000,4.000000,83.333336,,,,,,,,5.000000,0.000000,0.738241,0.031250,0.619873,-0.264160,0.932631,0.269535,-0.238285,0.645724,4.556047,13.389194
1618540668.391562,11.000000,0.000000,4311.794922,4816.922852,4228.717773,4229.230957,4152.307617,16236.000000,3.000000,73.000000,,,,0.000000,4.000000,2.000000,4.000000,4.000000,4.000000,83.333336,,,,,,,,,,,,,,,,,,,
1618540668.399378,12.000000,0.000000,4293.333496,4900.512695,4221.025879,4216.410156,4143.077148,450.000000,3.000000,73.000000,,,,0.000000,4.000000,2.000000,4.000000,4.000000,4.000000,83.333336,,,,,,,,6.000000,0.000000,0.738252,0.031006,0.619873,-0.264160,0.938979,0.284672,-0.231449,-2.289986,6.373426,13.426028
1618540668.407093,13.000000,0.000000,4284.615234,4942.563965,4206.153809,4221.538574,4139.487305,450.000000,3.000000,73.000000,,,,0.000000,4.000000,2.000000,4.000000,4.000000,4.000000,83.333336,,,,,,,,,,,,,,,,,,,
1618540668.414908,14.000000,0.000000,4293.846191,4855.897461,4185.128418,4230.769043,4152.820313,450.000000,3.000000,73.000000,,,,0.000000,4.000000,2.000000,4.000000,4.000000,4.000000,83.333336,,,,,,,,7.000000,0.000000,0.738047,0.031006,0.620117,-0.264160,0.942397,0.273930,-0.231937,1.049412,4.360331,13.219917
1618540668.422724,15.000000,0.000000,4303.589844,4863.077148,4174.871582,4232.307617,4162.563965,16236.000000,3.000000,73.000000,,,,0.000000,4.000000,2.000000,4.000000,4.000000,4.000000,83.333336,,,,,,,,,,,,,,,,,,,
1618540668.430539,16.000000,0.000000,4307.692383,4959.487305,4178.461426,4237.436035,4159.487305,0.000000,3.000000,73.000000,,,,0.000000,4.000000,2.000000,4.000000,4.000000,4.000000,83.333336,,,,,,,,8.000000,0.000000,0.738047,0.031006,0.620117,-0.264160,0.947768,0.294438,-0.238773,-1.926667,6.197281,13.333494
1618540668.438355,17.000000,0.000000,4319.487305,4929.743652,4185.641113,4243.589844,4162.563965,0.000000,3.000000,73.000000,,,,0.000000,4.000000,2.000000,4.000000,4.000000,4.000000,83.333336,,,,,,,,,,,,,,,,,,,
1618540668.446170,18.000000,0.000000,4334.358887,4843.077148,4189.230957,4235.897461,4175.384766,0.000000,3.000000,73.000000,,,,0.000000,4.000000,2.000000,4.000000,4.000000,4.000000,83.333336,,,,,,,,9.000000,0.000000,0.737852,0.030762,0.620361,-0.264160,0.936538,0.281743,-0.232425,-4.545322,7.850537,13.196452
1618540668.453985,19.000000,0.000000,4346.153809,4835.897461,4192.307617,4233.846191,4187.179688,0.000000,3.000000,73.000000,,,,0.000000,4.000000,2.000000,4.000000,4.000000,4.000000,83.333336,,,,,,,,,,,,,,,,,,,
1618540668.461801,20.000000,0.000000,4357.948730,4884.102539,4204.615234,4240.512695,4197.948730,0.000000,3.000000,73.000000,,,,0.000000,4.000000,2.000000,4.000000,4.000000,4.000000,83.333336,,,,,,,,10.000000,0.000000,0.737852,0.030762,0.620361,-0.264160,0.938979,0.281743,-0.234867,-3.073929,9.278652,13.132930
1618540668.469516,21.000000,0.000000,4370.769043,4903.589844,4218.974121,4231.794922,4213.333496,0.000000,3.000000,73.000000,,,,0.000000,4.000000,2.000000,4.000000,4.000000,4.000000,83.333336,,,,,,,,,,,,,,,,,,,
1618540668.477331,22.000000,0.000000,4385.128418,4882.051270,4214.871582,4218.461426,4239.487305,0.000000,3.000000,73.000000,,,,0.000000,4.000000,2.000000,4.000000,4.000000,4.000000,83.333336,,,,,,,,11.000000,0.000000,0.737862,0.030518,0.620361,-0.264160,0.937514,0.274418,-0.232914,-1.869306,6.735772,13.015944
1618540668.485147,23.000000,0.000000,4399.487305,4862.563965,4199.487305,4225.641113,4259.487305,0.000000,3.000000,73.000000,,,,0.000000,4.000000,2.000000,4.000000,4.000000,4.000000,83.333336,,,,,,,,,,,,,,,,,,,
1618540668.492962,24.000000,0.000000,4408.717773,4885.641113,4206.153809,4234.358887,4252.820313,0.000000,3.000000,73.000000,,,,0.000000,4.000000,2.000000,4.000000,4.000000,4.000000,83.333336,0.972656,66.666664,4.000000,1.000000,4.000000,4.000000,3.000000,12.000000,0.000000,0.737744,0.030518,0.620605,-0.263916,0.948257,0.288579,-0.239261,-0.785145,4.506995,12.970472
1618540668.500778,25.000000,0.000000,4408.205078,4923.589844,4219.487305,4223.077148,4234.358887,0.000000,3.000000,73.000000,,,,0.000000,4.000000,2.000000,4.000000,4.000000,4.000000,83.333336,,,,,,,,,,,,,,,,,,,
1618540668.508593,26.000000,0.000000,4399.487305,4877.436035,4203.077148,4214.871582,4226.666504,0.000000,3.000000,73.000000,,,,0.000000,4.000000,2.000000,4.000000,4.000000,4.000000,83.333336,,,,,,,,13.000000,0.000000,0.737754,0.030273,0.620605,-0.263916,0.944350,0.282719,-0.235355,0.310231,6.329279,12.989363
1618540668.516408,27.000000,0.000000,4381.025879,4841.538574,4181.538574,4217.436035,4215.897461,0.000000,3.000000,73.000000,,,,0.000000,4.000000,2.000000,4.000000,4.000000,4.000000,83.333336,,,,,,,,,,,,,,,,,,,
1618540668.524224,28.000000,0.000000,4358.461426,4912.820313,4185.128418,4220.512695,4192.307617,0.000000,3.000000,73.000000,,,,0.000000,4.000000,2.000000,4.000000,4.000000,4.000000,83.333336,,,,,,,,14.000000,0.000000,0.737548,0.030273,0.620850,-0.263916,0.938979,0.283696,-0.229496,3.987761,7.969336,13.125996
1618540668.532039,29.000000,0.000000,4344.102539,4906.153809,4194.871582,4229.743652,4177.436035,0.000000,3.000000,73.000000,,,,0.000000,4.000000,2.000000,4.000000,4.000000,4.000000,83.333336,,,,,,,,,,,,,,,,,,,
1618540668.539754,30.000000,0.000000,4336.922852,4838.461426,4193.333496,4244.102539,4176.410156,0.000000,3.000000,73.000000,,,,0.000000,4.000000,2.000000,4.000000,4.000000,4.000000,83.333336,,,,,,,,15.000000,0.000000,0.737558,0.030029,0.620850,-0.263916,0.938491,0.284672,-0.231937,2.631939,9.565017,13.069519
1618540668.547570,31.000000,0.000000,4331.794922,4881.538574,4193.333496,4247.692383,4172.820313,0.000000,3.000000,73.000000,,,,0.000000,4.000000,2.000000,4.000000,4.000000,4.000000,83.333336,,,,,,,,,,,,,,,,,,,
1618540668.555385,32.000000,0.000000,4324.615234,4904.615234,4197.436035,4230.256348,4163.077148,0.000000,3.000000,73.000000,,,,0.000000,4.000000,2.000000,4.000000,4.000000,4.000000,83.333336,,,,,,,,16.000000,0.000000,0.737353,0.030029,0.621094,-0.263916,0.952163,0.290044,-0.221683,3.086529,6.933685,13.078505
1618540668.563201,33.000000,0.000000,4313.846191,4861.025879,4188.717773,4218.974121,4158.974121,0.000000,3.000000,73.000000,,,,0.000000,4.000000,2.000000,4.000000,4.000000,4.000000,83.333336,,,,,,,,,,,,,,,,,,,
1618540668.571016,34.000000,0.000000,4300.512695,4894.871582,4168.205078,4220.000000,4157.948730,0.000000,3.000000,73.000000,,,,0.000000,4.000000,2.000000,4.000000,4.000000,4.000000,83.333336,,,,,,,,17.000000,0.000000,0.737353,0.030029,0.621094,-0.263916,0.944350,0.292973,-0.238285,3.734922,4.744932,12.907146
1618540668.578831,35.000000,0.000000,4290.769043,4915.384766,4156.410156,4212.820313,4150.256348,0.000000,3.000000,73.000000,,,,0.000000,4.000000,2.000000,4.000000,4.000000,4.000000,83.333336,,,,,,,,,,,,,,,,,,,
1618540668.586647,36.000000,0.000000,4284.615234,4885.641113,4162.051270,4205.641113,4145.128418,0.000000,3.000000,73.000000,,,,0.000000,4.000000,2.000000,4.000000,4.000000,4.000000,83.333336,,,,,,,,18.000000,0.000000,0.737363,0.029785,0.621094,-0.263916,0.928725,0.285649,-0.235355,4.378291,2.595608,12.812739
1618540668.594462,37.000000,0.000000,4287.179688,4941.538574,4168.717773,4213.846191,4147.179688,0.000000,3.000000,73.000000,,,,0.000000,4.000000,2.000000,4.000000,4.000000,4.000000,83.333336,,,,,,,,,,,,,,,,,,,
1618540668.602277,38.000000,0.000000,4299.487305,4970.769043,4170.769043,4226.153809,4150.769043,0.000000,3.000000,73.000000,,,,0.000000,4.000000,2.000000,4.000000,4.000000,4.000000,83.333336,,,,,,,,19.000000,0.000000,0.737363,0.029785,0.621094,-0.263916,0.934585,0.288579,-0.225101,6.991046,0.780848,12.847404
1618540668.609993,39.000000,0.000000,4298.461426,4889.230957,4172.820313,4234.871582,4146.666504,0.000000,3.000000,73.000000,,,,0.000000,4.000000,2.000000,4.000000,4.000000,4.000000,83.333336,,,,,,,,,,,,,,,,,,,
1618540668.617808,40.000000,0.000000,4277.436035,4867.179688,4169.743652,4235.897461,4127.179688,0.000000,3.000000,73.000000,,,,0.000000,4.000000,2.000000,4.000000,4.000000,4.000000,83.333336,,,,,,,,20.000000,0.000000,0.737167,0.029541,0.621338,-0.263916,0.945327,0.294926,-0.223636,7.308803,3.035563,12.818786
1618540668.625624,41.000000,0.000000,4258.974121,4925.128418,4162.563965,4228.717773,4105.641113,0.000000,3.000000,73.000000,,,,0.000000,4.000000,2.000000,4.000000,4.000000,4.000000,83.333336,,,,,,,,,,,,,,,,,,,
1618540668.633439,42.000000,0.000000,4247.179688,4938.974121,4150.769043,4219.487305,4094.871826,0.000000,3.000000,73.000000,,,,0.000000,4.000000,2.000000,4.000000,4.000000,4.000000,83.333336,,,,,,,,21.000000,0.000000,0.737167,0.029541,0.621338,-0.263916,0.929702,0.293462,-0.221683,7.475152,1.236622,12.912661
1618540668.641254,43.000000,0.000000,4235.384766,4886.153809,4145.641113,4216.922852,4088.718018,0.000000,3.000000,73.000000,,,,0.000000,4.000000,2.000000,4.000000,4.000000,4.000000,83.333336,,,,,,,,,,,,,,,,,,,
1618540668.649070,44.000000,0.000000,4238.461426,4883.077148,4155.384766,4227.692383,4090.256348,0.000000,3.000000,73.000000,,,,0.000000,4.000000,2.000000,4.000000,4.000000,4.000000,83.333336,,,,,,,,22.000000,0.000000,0.737363,0.029785,0.621094,-0.263916,0.934585,0.288579,-0.225101,9.778221,-0.442239,12.937332
1618540668.656885,45.000000,0.000000,4249.743652,4940.000000,4159.487305,4237.948730,4097.436035,0.000000,3.000000,73.000000,,,,0.000000,4.000000,2.000000,4.000000,4.000000,4.000000,83.333336,,,,,,,,,,,,,,,,,,,
1618540668.664700,46.000000,0.000000,4242.051270,4901.025879,4150.769043,4232.307617,4096.922852,0.000000,3.000000,73.000000,,,,0.000000,4.000000,2.000000,4.000000,4.000000,4.000000,83.333336,,,,,,,,23.000000,0.000000,0.737177,0.029297,0.621338,-0.263916,0.930190,0.283207,-0.226566,11.850983,-1.953215,12.959538
1618540668.672516,47.000000,0.000000,4232.307617,4851.282227,4148.717773,4231.282227,4103.077148,0.000000,3.000000,73.000000,,,,0.000000,4.000000,2.000000,4.000000,4.000000,4.000000,83.333336,,,,,,,,,,,,,,,,,,,
1618540668.680231,48.000000,0.000000,4247.692383,4943.077148,4157.948730,4247.179688,4123.589844,0.000000,3.000000,73.000000,,,,0.000000,4.000000,2.000000,4.000000,4.000000,4.000000,83.333336,,,,,,,,24.000000,0.000000,0.736980,0.029053,0.621582,-0.263916,0.948745,0.290532,-0.228031,13.537022,-3.313093,13.099153
1618540668.688047,49.000000,0.000000,4263.077148,4953.333496,4167.179688,4254.358887,4133.333496,0.000000,3.000000,73.000000,,,,0.000000,4.000000,2.000000,4.000000,4.000000,4.000000,83.333336,,,,,,,,,,,,,,,,,,,
1618540668.695862,50.000000,0.000000,4254.358887,4865.128418,4171.794922,4248.717773,4129.230957,0.000000,3.000000,73.000000,,,,0.000000,4.000000,2.000000,4.000000,4.000000,4.000000,83.333336,,,,,,,,25.000000,0.000000,0.736784,0.028809,0.621826,-0.263916,0.949233,0.298344,-0.225101,9.252367,-0.708800,12.985544
1618540668.703677,51.000000,0.000000,4248.205078,4914.871582,4170.769043,4248.717773,4133.333496,0.000000,3.000000,73.000000,,,,0.000000,4.000000,2.000000,4.000000,4.000000,4.000000,83.333336,,,,,,,,,,,,,,,,,,,
1618540668.711493,52.000000,0.000000,4257.436035,4974.358887,4170.769043,4251.794922,4139.487305,0.000000,3.000000,73.000000,,,,0.000000,4.000000,2.000000,4.000000,4.000000,4.000000,83.333336,,,,,,,,26.000000,0.000000,0.736578,0.028809,0.622070,-0.263916,0.945327,0.285649,-0.227054,8.267315,-2.193119,12.943112
1618540668.719308,53.000000,0.000000,4260.512695,4918.974121,4174.871582,4251.282227,4138.974121,0.000000,3.000000,73.000000,,,,0.000000,4.000000,2.000000,4.000000,4.000000,4.000000,83.333336,,,,,,,,,,,,,,,,,,,
1618540668.727123,54.000000,0.000000,4247.179688,4904.102539,4169.230957,4243.589844,4137.436035,0.000000,3.000000,73.000000,,,,0.000000,4.000000,2.000000,4.000000,4.000000,4.000000,83.333336,,,,,,,,27.000000,0.000000,0.736665,0.028809,0.622070,-0.263672,0.934096,0.290532,-0.235843,6.483537,-3.469192,12.904924
1618540668.734939,55.000000,0.000000,4240.000000,4915.897461,4164.102539,4232.820313,4141.025879,0.000000,3.000000,73.000000,,,,0.000000,4.000000,2.000000,4.000000,4.000000,4.000000,83.333336,,,,,,,,,,,,,,,,,,,
1618540668.742754,56.000000,0.000000,4249.230957,4905.128418,4169.230957,4230.769043,4148.205078,0.000000,3.000000,73.000000,,,,0.000000,4.000000,2.000000,4.000000,4.000000,4.000000,83.333336,,,,,,,,28.000000,0.000000,0.736459,0.028809,0.622314,-0.263672,0.938979,0.278813,-0.232914,6.911860,-4.557841,12.810739
1618540668.750469,57.000000,0.000000,4252.307617,4925.128418,4174.358887,4226.153809,4154.358887,0.000000,3.000000,73.000000,,,,0.000000,4.000000,2.000000,4.000000,4.000000,4.000000,83.333336,,,,,,,,,,,,,,,,,,,
1618540668.758285,58.000000,0.000000,4241.538574,4892.820313,4173.846191,4203.077148,4152.820313,0.000000,3.000000,73.000000,,,,0.000000,4.000000,2.000000,4.000000,4.000000,4.000000,83.333336,,,,,,,,29.000000,0.000000,0.736340,0.028809,0.622559,-0.263428,0.934585,0.281254,-0.217777,7.177720,-1.769258,12.785788
1618540668.766100,59.000000,0.000000,4236.410156,4872.820313,4172.307617,4178.461426,4143.077148,0.000000,3.000000,73.000000,,,,0.000000,4.000000,2.000000,4.000000,4.000000,4.000000,83.333336,,,,,,,,,,,,,,,,,,,
1618540668.773916,60.000000,0.000000,4238.974121,4932.820313,4173.846191,4170.256348,4136.410156,0.000000,3.000000,73.000000,,,,0.000000,4.000000,2.000000,4.000000,4.000000,4.000000,83.333336,,,,,,,,30.000000,0.000000,0.736427,0.028809,0.622559,-0.263184,0.946303,0.282719,-0.227054,7.416994,0.680652,12.763331
1618540668.781731,61.000000,0.000000,4242.051270,4921.538574,4177.436035,4175.897461,4143.077148,0.000000,3.000000,73.000000,,,,0.000000,4.000000,2.000000,4.000000,4.000000,4.000000,83.333336,,,,,,,,,,,,,,,,,,,
1618540668.789546,62.000000,0.000000,4245.641113,4881.538574,4177.436035,4192.307617,4155.384766,0.000000,3.000000,73.000000,,,,0.000000,4.000000,2.000000,4.000000,4.000000,4.000000,83.333336,,,,,,,,31.000000,0.000000,0.736427,0.028809,0.622559,-0.263184,0.939956,0.272953,-0.215824,7.751971,-1.122059,12.683306
1618540668.797362,63.000000,0.000000,4248.205078,4911.282227,4177.436035,4211.794922,4163.589844,0.000000,3.000000,73.000000,,,,0.000000,4.000000,2.000000,4.000000,4.000000,4.000000,83.333336,,,,,,,,,,,,,,,,,,,
1618540668.805177,64.000000,0.000000,4245.641113,4938.974121,4176.922852,4213.846191,4168.205078,450.000000,3.000000,73.000000,,,,0.000000,4.000000,2.000000,4.000000,4.000000,4.000000,83.333336,,,,,,,,32.000000,0.000000,0.736505,0.029053,0.622559,-0.262939,0.944350,0.284184,-0.215824,7.814189,1.322946,12.730913
1618540668.812992,65.000000,0.000000,4242.563965,4924.102539,4167.692383,4201.025879,4165.641113,450.000000,3.000000,73.000000,,,,0.000000,4.000000,2.000000,4.000000,4.000000,4.000000,83.333336,,,,,,,,,,,,,,,,,,,
1618540668.820708,66.000000,0.000000,4237.948730,4912.820313,4153.333496,4195.897461,4160.000000,16205.000000,3.000000,73.000000,,,,0.000000,4.000000,2.000000,4.000000,4.000000,4.000000,83.333336,,,,,,,,33.000000,0.000000,0.736418,0.029053,0.622559,-0.263184,0.939956,0.276371,-0.232914,6.972955,-0.364548,12.594314
1618540668.828523,67.000000,0.000000,4235.384766,4914.358887,4152.820313,4197.436035,4167.179688,450.000000,3.000000,73.000000,,,,0.000000,4.000000,2.000000,4.000000,4.000000,4.000000,83.333336,,,,,,,,,,,,,,,,,,,
1618540668.836338,68.000000,0.000000,4227.692383,4901.025879,4161.538574,4194.358887,4162.563965,197.000000,3.000000,73.000000,,,,0.000000,4.000000,2.000000,4.000000,4.000000,4.000000,83.333336,,,,,,,,34.000000,0.000000,0.736418,0.029053,0.622559,-0.263184,0.931655,0.285649,-0.222171,6.215844,-1.763662,12.591005
1618540668.844053,69.000000,0.000000,4217.948730,4886.153809,4165.128418,4192.307617,4144.102539,450.000000,3.000000,73.000000,,,,0.000000,4.000000,2.000000,4.000000,4.000000,4.000000,83.333336,,,,,,,,,,,,,,,,,,,
1618540668.851869,70.000000,0.000000,4226.666504,4898.974121,4163.077148,4189.230957,4151.794922,16137.000000,3.000000,73.000000,,,,0.000000,4.000000,2.000000,4.000000,4.000000,4.000000,83.333336,,,,,,,,35.000000,0.000000,0.736418,0.029053,0.622559,-0.263184,0.942397,0.278325,-0.223148,5.474629,-3.202311,12.588027
1618540668.859684,71.000000,0.000000,4240.512695,4907.692383,4156.922852,4181.538574,4171.282227,450.000000,3.000000,73.000000,,,,0.000000,4.000000,2.000000,4.000000,4.000000,4.000000,83.333336,,,,,,,,,,,,,,,,,,,
1618540668.867499,72.000000,0.000000,4233.333496,4909.230957,4156.410156,4184.102539,4168.717773,450.000000,3.000000,73.000000,,,,0.000000,4.000000,2.000000,4.000000,4.000000,4.000000,83.333336,,,,,,,,36.000000,0.000000,0.736124,0.029053,0.622803,-0.263428,0.945815,0.281743,-0.221195,4.747720,-0.668911,12.525532
1618540668.875315,73.000000,0.000000,4222.051270,4934.358887,4163.589844,4196.410156,4167.692383,317.000000,3.000000,73.000000,,,,0.000000,4.000000,2.000000,4.000000,4.000000,4.000000,83.333336,,,,,,,,,,,,,,,,,,,
1618540668.883130,74.000000,0.000000,4226.153809,4907.179688,4169.743652,4202.051270,4186.666504,450.000000,3.000000,73.000000,,,,0.000000,4.000000,2.000000,4.000000,4.000000,4.000000,83.333336,,,,,,,,37.000000,0.000000,0.736124,0.029053,0.622803,-0.263428,0.934585,0.296391,-0.230472,5.349625,-2.037589,12.409471
1618540668.890945,75.000000,0.000000,4230.769043,4849.743652,4174.358887,4205.641113,4201.538574,16220.000000,3.000000,73.000000,,,,0.000000,4.000000,2.000000,4.000000,4.000000,4.000000,83.333336,,,,,,,,,,,,,,,,,,,
1618540668.898661,76.000000,0.000000,4230.256348,4918.461426,4180.000000,4209.230957,4206.666504,450.000000,3.000000,73.000000,,,,0.000000,4.000000,2.000000,4.000000,4.000000,4.000000,83.333336,,,,,,,,38.000000,0.000000,0.736124,0.029053,0.622803,-0.263428,0.946303,0.294438,-0.230472,5.592262,-3.389029,12.424646
1618540668.906477,77.000000,0.000000,4229.743652,4984.615234,4183.077148,4202.051270,4211.794922,450.000000,3.000000,73.000000,,,,0.000000,4.000000,2.000000,4.000000,4.000000,4.000000,83.333336,,,,,,,,,,,,,,,,,,,
1618540668.914292,78.000000,0.000000,4227.179688,4898.461426,4188.205078,4190.256348,4208.205078,450.000000,3.000000,73.000000,,,,0.000000,4.000000,2.000000,4.000000,4.000000,4.000000,83.333336,,,,,,,,39.000000,0.000000,0.735927,0.028809,0.623047,-0.263428,0.936049,0.303716,-0.220218,2.161898,-0.777142,12.378489
1618540668.922108,79.000000,0.000000,4228.205078,4873.333496,4200.000000,4192.820313,4203.589844,16220.000000,3.000000,73.000000,,,,0.000000,4.000000,2.000000,4.000000,4.000000,4.000000,83.333336,,,,,,,,,,,,,,,,,,,
1618540668.929924,80.000000,0.000000,4242.051270,4942.051270,4205.128418,4205.128418,4215.384766,450.000000,3.000000,73.000000,,,,0.000000,4.000000,2.000000,4.000000,4.000000,4.000000,83.333336,,,,,,,,40.000000,0.000000,0.735826,0.028320,0.623291,-0.263184,0.951186,0.302251,-0.239750,2.842939,1.573556,12.277132
1618540668.937739,81.000000,0.000000,4255.384766,4953.333496,4197.948730,4205.641113,4230.769043,450.000000,3.000000,73.000000,,,,0.000000,4.000000,2.000000,4.000000,4.000000,4.000000,83.333336,,,,,,,,,,,,,,,,,,,
1618540668.945555,82.000000,0.000000,4255.384766,4907.692383,4196.922852,4209.743652,4228.717773,450.000000,3.000000,73.000000,,,,0.000000,4.000000,2.000000,4.000000,4.000000,4.000000,83.333336,,,,,,,,41.000000,0.000000,0.735233,0.027588,0.624023,-0.263184,0.949233,0.298344,-0.238285,-0.372308,-0.138999,12.305542
1618540668.953370,83.000000,0.000000,4251.282227,4868.205078,4200.000000,4225.128418,4225.128418,16220.000000,3.000000,73.000000,,,,0.000000,4.000000,2.000000,4.000000,4.000000,4.000000,83.333336,,,,,,,,,,,,,,,,,,,
1618540668.961186,84.000000,0.000000,4247.692383,4898.974121,4193.846191,4216.410156,4228.717773,450.000000,3.000000,73.000000,,,,0.000000,4.000000,2.000000,4.000000,4.000000,4.000000,83.333336,,,,,,,,42.000000,0.000000,0.734837,0.027100,0.624512,-0.263184,0.956558,0.296391,-0.227054,3.433291,-1.560668,12.390925
1618540668.969002,85.000000,0.000000,4245.128418,4925.641113,4189.743652,4193.846191,4218.461426,450.000000,3.000000,73.000000,,,,0.000000,4.000000,2.000000,4.000000,4.000000,4.000000,83.333336,,,,,,,,,,,,,,,,,,,
1618540668.976717,86.000000,0.000000,4244.102539,4880.512695,4193.846191,4192.820313,4211.794922,450.000000,3.000000,73.000000,,,,0.000000,4.000000,2.000000,4.000000,4.000000,4.000000,83.333336,,,,,,,,43.000000,0.000000,0.735826,0.028320,0.623291,-0.263184,0.951186,0.302251,-0.239750,2.132916,0.928198,12.467771
1618540668.984532,87.000000,0.000000,4236.410156,4898.461426,4186.666504,4197.948730,4218.974121,16220.000000,3.000000,73.000000,,,,0.000000,4.000000,2.000000,4.000000,4.000000,4.000000,83.333336,,,,,,,,,,,,,,,,,,,
1618540668.992348,88.000000,0.000000,4229.230957,4989.743652,4180.512695,4201.025879,4223.077148,450.000000,3.000000,73.000000,,,,0.000000,4.000000,2.000000,4.000000,4.000000,4.000000,83.333336,1.000000,66.666664,4.000000,1.000000,4.000000,4.000000,3.000000,44.000000,0.000000,0.734837,0.027100,0.624512,-0.263184,0.956558,0.296391,-0.227054,5.687992,-0.600191,12.536932
1618540669.000163,89.000000,0.000000,4242.051270,4941.025879,4198.974121,4220.000000,4234.871582,450.000000,3.000000,73.000000,,,,0.000000,4.000000,2.000000,4.000000,4.000000,4.000000,83.333336,,,,,,,,,,,,,,,,,,,
1618540669.007978,90.000000,0.000000,4254.358887,4851.794922,4213.333496,4238.461426,4252.307617,450.000000,3.000000,73.000000,,,,0.000000,4.000000,2.000000,4.000000,4.000000,4.000000,83.333336,,,,,,,,45.000000,0.000000,0.734319,0.026611,0.625244,-0.262939,0.949233,0.290044,-0.226566,6.016424,-2.095371,12.479546
1618540669.015794,91.000000,0.000000,4245.641113,4947.692383,4208.717773,4237.436035,4249.230957,16220.000000,3.000000,73.000000,,,,0.000000,4.000000,2.000000,4.000000,4.000000,4.000000,83.333336,,,,,,,,,,,,,,,,,,,
1618540669.023609,92.000000,0.000000,4241.538574,5007.692383,4204.615234,4236.410156,4235.897461,450.000000,3.000000,73.000000,,,,0.000000,4.000000,2.000000,4.000000,4.000000,4.000000,83.333336,,,,,,,,46.000000,0.000000,0.734008,0.026123,0.625732,-0.262695,0.939956,0.283696,-0.230472,6.312012,0.566596,12.487714
1618540669.031425,93.000000,0.000000,4244.102539,4914.358887,4200.000000,4237.948730,4238.461426,450.000000,3.000000,73.000000,,,,0.000000,4.000000,2.000000,4.000000,4.000000,4.000000,83.333336,,,,,,,,,,,,,,,,,,,
1618540669.039140,94.000000,0.000000,4238.461426,4885.641113,4193.846191,4231.794922,4241.025879,450.000000,3.000000,73.000000,,,,0.000000,4.000000,2.000000,4.000000,4.000000,4.000000,83.333336,,,,,,,,47.000000,0.000000,0.733696,0.025635,0.626221,-0.262451,0.945327,0.283207,-0.225589,2.630227,2.782920,12.435250
1618540669.046955,95.000000,0.000000,4242.051270,4945.128418,4200.000000,4226.666504,4244.615234,16220.000000,3.000000,73.000000,,,,0.000000,4.000000,2.000000,4.000000,4.000000,4.000000,83.333336,,,,,,,,,,,,,,,,,,,
1618540669.054771,96.000000,0.000000,4255.897461,4945.128418,4207.692383,4225.641113,4256.922852,450.000000,3.000000,73.000000,,,,0.000000,4.000000,2.000000,4.000000,4.000000,4.000000,83.333336,,,,,,,,48.000000,0.000000,0.733296,0.025146,0.626709,-0.262451,0.926284,0.310552,-0.226566,-0.444118,4.897243,12.447847
1618540669.062586,97.000000,0.000000,4256.922852,4907.692383,4195.384766,4216.410156,4256.410156,450.000000,3.000000,73.000000,,,,0.000000,4.000000,2.000000,4.000000,4.000000,4.000000,83.333336,,,,,,,,,,,,,,,,,,,
1618540669.070401,98.000000,0.000000,4249.230957,4910.769043,4176.410156,4207.179688,4246.666504,450.000000,3.000000,73.000000,,,,0.000000,4.000000,2.000000,4.000000,4.000000,4.000000,83.333336,,,,,,,,49.000000,0.000000,0.733061,0.024902,0.627197,-0.261963,0.933608,0.291508,-0.210941,0.557340,6.680502,12.279739
1618540669.078217,99.000000,0.000000,4253.333496,4923.589844,4174.358887,4211.794922,4252.307617,16220.000000,3.000000,73.000000,,,,0.000000,4.000000,2.000000,4.000000,4.000000,4.000000,83.333336,,,,,,,,,,,,,,,,,,,
1618540669.086032,100.000000,0.000000,4256.410156,4927.692383,4180.000000,4212.820313,4257.436035,450.000000,3.000000,73.000000,,,,0.000000,4.000000,2.000000,4.000000,4.000000,4.000000,83.333336,,,,,,,,50.000000,0.000000,0.732739,0.024658,0.627686,-0.261719,0.949722,0.297368,-0.208988,1.339021,4.457253,12.068626
1618540669.093848,101.000000,0.000000,4245.641113,4914.871582,4173.333496,4204.615234,4244.102539,450.000000,3.000000,73.000000,,,,0.000000,4.000000,2.000000,4.000000,4.000000,4.000000,83.333336,,,,,,,,,,,,,,,,,,,
1618540669.101663,102.000000,0.000000,4235.897461,4912.820313,4162.563965,4204.615234,4238.974121,450.000000,3.000000,73.000000,,,,0.000000,4.000000,2.000000,4.000000,4.000000,4.000000,83.333336,,,,,,,,51.000000,0.000000,0.732625,0.024414,0.627930,-0.261475,0.940932,0.283207,-0.213382,-1.785650,6.284512,11.938440
1618540669.109378,103.000000,0.000000,4234.871582,4914.358887,4157.948730,4204.102539,4241.538574,16220.000000,3.000000,73.000000,,,,0.000000,4.000000,2.000000,4.000000,4.000000,4.000000,83.333336,,,,,,,,,,,,,,,,,,,
1618540669.117194,104.000000,0.000000,4235.384766,4916.922852,4156.922852,4196.922852,4231.282227,450.000000,3.000000,73.000000,,,,0.000000,4.000000,2.000000,4.000000,4.000000,4.000000,83.333336,,,,,,,,52.000000,0.000000,0.732301,0.024170,0.628418,-0.261230,0.939956,0.291020,-0.206546,-4.478222,7.988860,11.881088
1618540669.125009,105.000000,0.000000,4234.871582,4941.538574,4164.102539,4200.512695,4224.615234,450.000000,3.000000,73.000000,,,,0.000000,4.000000,2.000000,4.000000,4.000000,4.000000,83.333336,,,,,,,,,,,,,,,,,,,
1618540669.132824,106.000000,0.000000,4236.410156,4947.692383,4177.436035,4212.820313,4232.820313,450.000000,3.000000,73.000000,,,,0.000000,4.000000,2.000000,4.000000,4.000000,4.000000,83.333336,,,,,,,,53.000000,0.000000,0.732092,0.024170,0.628662,-0.261230,0.938491,0.288579,-0.209476,-3.133169,5.574959,11.889287
1618540669.140640,107.000000,0.000000,4242.051270,4937.948730,4184.102539,4215.384766,4241.025879,16220.000000,3.000000,73.000000,,,,0.000000,4.000000,2.000000,4.000000,4.000000,4.000000,83.333336,,,,,,,,,,,,,,,,,,,
1618540669.148455,108.000000,0.000000,4240.000000,4918.974121,4179.487305,4212.307617,4239.487305,450.000000,3.000000,73.000000,,,,0.000000,4.000000,2.000000,4.000000,4.000000,4.000000,83.333336,,,,,,,,54.000000,0.000000,0.732100,0.023926,0.628662,-0.261230,0.939956,0.291020,-0.223636,-5.631175,7.350262,11.777035
1618540669.156271,109.000000,0.000000,4235.897461,4906.153809,4174.358887,4213.333496,4236.922852,450.000000,3.000000,73.000000,,,,0.000000,4.000000,2.000000,4.000000,4.000000,4.000000,83.333336,,,,,,,,,,,,,,,,,,,
1618540669.164086,110.000000,0.000000,4250.256348,4920.000000,4175.897461,4214.358887,4251.282227,450.000000,3.000000,73.000000,,,,0.000000,4.000000,2.000000,4.000000,4.000000,4.000000,83.333336,,,,,,,,55.000000,0.000000,0.731890,0.023926,0.628906,-0.261230,0.946303,0.279301,-0.215824,-2.196920,5.060036,11.735824
1618540669.171901,111.000000,0.000000,4271.794922,4927.692383,4183.077148,4214.358887,4266.666504,16220.000000,3.000000,73.000000,,,,0.000000,4.000000,2.000000,4.000000,4.000000,4.000000,83.333336,,,,,,,,,,,,,,,,,,,
1618540669.179617,112.000000,0.000000,4274.358887,4925.128418,4181.538574,4211.794922,4264.102539,450.000000,3.000000,73.000000,,,,0.000000,4.000000,2.000000,4.000000,4.000000,4.000000,83.333336,,,,,,,,56.000000,0.000000,0.731688,0.023682,0.629150,-0.261230,0.960952,0.292485,-0.197757,-1.020182,3.058649,11.758549
1618540669.187432,113.000000,0.000000,4261.538574,4907.179688,4164.102539,4198.974121,4252.307617,450.000000,3.000000,73.000000,,,,0.000000,4.000000,2.000000,4.000000,4.000000,4.000000,83.333336,,,,,,,,,,,,,,,,,,,
1618540669.195247,114.000000,0.000000,4256.922852,4910.769043,4156.922852,4197.436035,4250.256348,450.000000,3.000000,73.000000,,,,0.000000,4.000000,2.000000,4.000000,4.000000,4.000000,83.333336,,,,,,,,57.000000,0.000000,0.731696,0.023438,0.629150,-0.261230,0.945815,0.298344,-0.221195,0.098698,1.197584,11.659370
1618540669.203063,115.000000,0.000000,4262.563965,4952.307617,4168.205078,4220.000000,4257.948730,16220.000000,3.000000,73.000000,,,,0.000000,4.000000,2.000000,4.000000,4.000000,4.000000,83.333336,,,,,,,,,,,,,,,,,,,
1618540669.210878,116.000000,0.000000,4270.769043,4975.897461,4176.922852,4234.871582,4268.205078,450.000000,3.000000,73.000000,,,,0.000000,4.000000,2.000000,4.000000,4.000000,4.000000,83.333336,,,,,,,,58.000000,0.000000,0.731486,0.023438,0.629395,-0.261230,0.938491,0.301274,-0.204593,0.986058,-0.597004,11.570109
1618540669.218694,117.000000,0.000000,4274.871582,4948.205078,4175.384766,4225.128418,4272.307617,450.000000,3.000000,73.000000,,,,0.000000,4.000000,2.000000,4.000000,4.000000,4.000000,83.333336,,,,,,,,,,,,,,,,,,,
1618540669.226509,118.000000,0.000000,4274.358887,4902.051270,4179.487305,4220.000000,4267.179688,450.000000,3.000000,73.000000,,,,0.000000,4.000000,2.000000,4.000000,4.000000,4.000000,83.333336,,,,,,,,59.000000,0.000000,0.731284,0.023193,0.629639,-0.261230,0.936049,0.307134,-0.207523,-2.043500,1.735680,11.489776
1618540669.234324,119.000000,0.000000,4273.333496,4879.487305,4189.743652,4224.102539,4262.051270,16220.000000,3.000000,73.000000,,,,0.000000,4.000000,2.000000,4.000000,4.000000,4.000000,83.333336,,,,,,,,,,,,,,,,,,,
1618540669.242140,120.000000,0.000000,4271.282227,4896.410156,4186.666504,4216.922852,4258.974121,450.000000,3.000000,73.000000,,,,0.000000,4.000000,2.000000,4.000000,4.000000,4.000000,83.333336,,,,,,,,60.000000,0.000000,0.731284,0.023193,0.629639,-0.261230,0.934096,0.305669,-0.209476,-1.061551,0.006912,11.477290
1618540669.249855,121.000000,0.000000,4271.282227,4954.871582,4175.384766,4210.256348,4259.487305,450.000000,3.000000,73.000000,,,,0.000000,4.000000,2.000000,4.000000,4.000000,4.000000,83.333336,,,,,,,,,,,,,,,,,,,
1618540669.257670,122.000000,0.000000,4272.820313,4956.410156,4172.820313,4223.589844,4256.922852,450.000000,3.000000,73.000000,,,,0.000000,4.000000,2.000000,4.000000,4.000000,4.000000,83.333336,,,,,,,,61.000000,0.000000,0.731081,0.022949,0.629883,-0.261230,0.942885,0.297368,-0.206058,-3.826533,2.159574,11.406238
1618540669.265486,123.000000,0.000000,4266.666504,4913.846191,4180.000000,4242.051270,4246.666504,16220.000000,3.000000,73.000000,,,,0.000000,4.000000,2.000000,4.000000,4.000000,4.000000,83.333336,,,,,,,,,,,,,,,,,,,
1618540669.273301,124.000000,0.000000,4258.974121,4935.897461,4183.589844,4244.615234,4240.000000,450.000000,3.000000,73.000000,,,,0.000000,4.000000,2.000000,4.000000,4.000000,4.000000,83.333336,,,,,,,,62.000000,0.000000,0.731176,0.022705,0.629883,-0.260986,0.942397,0.300786,-0.203616,-2.666280,0.268787,11.461921
1618540669.281117,125.000000,0.000000,4263.589844,4950.769043,4180.512695,4234.871582,4240.512695,450.000000,3.000000,73.000000,,,,0.000000,4.000000,2.000000,4.000000,4.000000,4.000000,83.333336,,,,,,,,,,,,,,,,,,,
1618540669.288932,126.000000,0.000000,4269.230957,4893.846191,4177.436035,4222.051270,4238.974121,450.000000,3.000000,73.000000,,,,0.000000,4.000000,2.000000,4.000000,4.000000,4.000000,83.333336,,,,,,,,63.000000,0.000000,0.731183,0.022461,0.629883,-0.260986,0.933120,0.284184,-0.208988,-5.210974,2.634523,11.392406
1618540669.296747,127.000000,0.000000,4260.512695,4872.820313,4175.384766,4220.000000,4236.922852,238.000000,3.000000,73.000000,,,,0.000000,4.000000,2.000000,4.000000,4.000000,4.000000,83.333336,,,,,,,,,,,,,,,,,,,
1618540669.304563,0.000000,0.000000,4260.000000,4949.230957,4177.436035,4234.871582,4236.410156,450.000000,3.000000,73.000000,,,,0.000000,4.000000,2.000000,4.000000,4.000000,4.000000,83.333336,,,,,,,,0.000000,0.000000,0.730981,0.022217,0.630127,-0.260986,0.947768,0.298833,-0.200687,-1.100955,0.935502,11.449472
1618540669.312378,1.000000,0.000000,4270.769043,4973.333496,4178.461426,4242.563965,4231.282227,450.000000,3.000000,73.000000,,,,0.000000,4.000000,2.000000,4.000000,4.000000,4.000000,83.333336,,,,,,,,,,,,,,,,,,,
1618540669.320093,2.000000,0.000000,4261.025879,4881.025879,4170.256348,4237.436035,4220.000000,16204.000000,3.000000,73.000000,,,,0.000000,4.000000,2.000000,4.000000,4.000000,4.000000,83.333336,,,,,,,,1.000000,0.000000,0.731075,0.021973,0.630127,-0.260742,0.936538,0.287114,-0.208988,-0.033814,3.174751,11.321386
1618540669.327909,3.000000,0.000000,4241.025879,4870.769043,4162.051270,4238.461426,4210.256348,450.000000,3.000000,73.000000,,,,0.000000,4.000000,2.000000,4.000000,4.000000,4.000000,83.333336,,,,,,,,,,,,,,,,,,,
1618540669.335724,4.000000,0.000000,4240.000000,4980.000000,4167.179688,4233.846191,4210.769043,200.000000,3.000000,73.000000,,,,0.000000,4.000000,2.000000,4.000000,4.000000,4.000000,83.333336,,,,,,,,2.000000,0.000000,0.730865,0.021973,0.630371,-0.260742,0.948745,0.303227,-0.203128,0.866798,5.190075,11.505186
1618540669.343540,5.000000,0.000000,4244.615234,4980.000000,4177.436035,4224.102539,4216.922852,450.000000,3.000000,73.000000,,,,0.000000,4.000000,2.000000,4.000000,4.000000,4.000000,83.333336,,,,,,,,,,,,,,,,,,,
1618540669.351355,6.000000,0.000000,4248.205078,4893.333496,4177.436035,4228.717773,4220.000000,16121.000000,3.000000,73.000000,,,,0.000000,4.000000,2.000000,4.000000,4.000000,4.000000,83.333336,,,,,,,,3.000000,0.000000,0.730872,0.021729,0.630371,-0.260742,0.950210,0.297856,-0.200687,4.548487,3.115868,11.610789
1618540669.359170,7.000000,0.000000,4256.410156,4897.948730,4169.230957,4231.282227,4222.563965,450.000000,3.000000,73.000000,,,,0.000000,4.000000,2.000000,4.000000,4.000000,4.000000,83.333336,,,,,,,,,,,,,,,,,,,
1618540669.366986,8.000000,0.000000,4251.282227,4971.794922,4161.025879,4217.436035,4225.128418,450.000000,3.000000,73.000000,,,,0.000000,4.000000,2.000000,4.000000,4.000000,4.000000,83.333336,,,,,,,,4.000000,0.000000,0.730872,0.021729,0.630371,-0.260742,0.937026,0.282719,-0.209476,1.162685,5.077265,11.646018
1618540669.374801,9.000000,0.000000,4239.487305,4983.077148,4156.410156,4214.871582,4221.538574,317.000000,3.000000,73.000000,,,,0.000000,4.000000,2.000000,4.000000,4.000000,4.000000,83.333336,,,,,,,,,,,,,,,,,,,
1618540669.382517,10.000000,0.000000,4246.666504,4908.205078,4158.461426,4228.717773,4221.025879,450.000000,3.000000,73.000000,,,,0.000000,4.000000,2.000000,4.000000,4.000000,4.000000,83.333336,,,,,,,,5.000000,0.000000,0.730785,0.021729,0.630371,-0.260986,0.935073,0.287114,-0.203128,2.072285,4.543255,11.706259
1618540669.390332,11.000000,0.000000,4260.000000,4900.000000,4163.077148,4231.794922,4233.333496,16224.000000,3.000000,73.000000,,,,0.000000,4.000000,2.000000,4.000000,4.000000,4.000000,83.333336,,,,,,,,,,,,,,,,,,,
1618540669.398148,12.000000,0.000000,4264.102539,4992.307617,4164.615234,4228.717773,4244.102539,450.000000,3.000000,73.000000,,,,0.000000,4.000000,2.000000,4.000000,4.000000,4.000000,83.333336,,,,,,,,6.000000,0.000000,0.730792,0.021484,0.630371,-0.260986,0.949233,0.301274,-0.203616,5.633425,2.533730,11.791756
1618540669.405963,13.000000,0.000000,4260.000000,5010.769043,4156.922852,4224.102539,4232.307617,450.000000,3.000000,73.000000,,,,0.000000,4.000000,2.000000,4.000000,4.000000,4.000000,83.333336,,,,,,,,,,,,,,,,,,,
1618540669.413779,14.000000,0.000000,4243.077148,4935.384766,4146.666504,4209.743652,4213.846191,450.000000,3.000000,73.000000,,,,0.000000,4.000000,2.000000,4.000000,4.000000,4.000000,83.333336,,,,,,,,7.000000,0.000000,0.730581,0.021484,0.630615,-0.260986,0.939467,0.318364,-0.212406,4.890636,4.553341,11.689257
1618540669.421595,15.000000,0.000000,4217.948730,4937.948730,4144.102539,4205.128418,4207.179688,16224.000000,3.000000,73.000000,,,,0.000000,4.000000,2.000000,4.000000,4.000000,4.000000,83.333336,,,,,,,,,,,,,,,,,,,
1618540669.429410,16.000000,0.000000,4205.128418,4986.666504,4146.153809,4210.256348,4198.974121,0.000000,3.000000,73.000000,,,,0.000000,4.000000,2.000000,4.000000,4.000000,4.000000,83.333336,,,,,,,,8.000000,0.000000,0.730494,0.021484,0.630615,-0.261230,0.942397,0.298344,-0.209964,8.169941,2.602623,11.716639
1618540669.437226,17.000000,0.000000,4209.743652,4940.512695,4150.256348,4197.436035,4187.179688,0.000000,3.000000,73.000000,,,,0.000000,4.000000,2.000000,4.000000,4.000000,4.000000,83.333336,,,,,,,,,,,,,,,,,,,
1618540669.445041,18.000000,0.000000,4213.846191,4869.230957,4157.948730,4178.461426,4189.230957,0.000000,3.000000,73.000000,,,,0.000000,4.000000,2.000000,4.000000,4.000000,4.000000,83.333336,,,,,,,,9.000000,0.000000,0.730705,0.021484,0.630371,-0.261230,0.945327,0.307134,-0.210941,8.190362,4.615345,11.681466
1618540669.452757,19.000000,0.000000,4211.794922,4901.538574,4163.589844,4181.025879,4194.358887,0.000000,3.000000,73.000000,,,,0.000000,4.000000,2.000000,4.000000,4.000000,4.000000,83.333336,,,,,,,,,,,,,,,,,,,
1618540669.460573,20.000000,0.000000,4213.846191,4962.051270,4161.538574,4193.333496,4190.769043,0.000000,3.000000,73.000000,,,,0.000000,4.000000,2.000000,4.000000,4.000000,4.000000,83.333336,,,,,,,,10.000000,0.000000,0.730581,0.021484,0.630615,-0.260986,0.939467,0.318364,-0.212406,7.191879,6.426794,11.589996
1618540669.468388,21.000000,0.000000,4224.615234,4936.922852,4158.974121,4200.512695,4193.846191,0.000000,3.000000,73.000000,,,,0.000000,4.000000,2.000000,4.000000,4.000000,4.000000,83.333336,,,,,,,,,,,,,,,,,,,
1618540669.476204,22.000000,0.000000,4228.717773,4890.769043,4155.384766,4204.102539,4203.589844,0.000000,3.000000,73.000000,,,,0.000000,4.000000,2.000000,4.000000,4.000000,4.000000,83.333336,,,,,,,,11.000000,0.000000,0.730705,0.021484,0.630371,-0.261230,0.945327,0.307134,-0.210941,7.310107,8.057098,11.567489
1618540669.484020,23.000000,0.000000,4228.717773,4915.897461,4153.846191,4204.102539,4204.102539,0.000000,3.000000,73.000000,,,,0.000000,4.000000,2.000000,4.000000,4.000000,4.000000,83.333336,,,,,,,,,,,,,,,,,,,
1618540669.491835,24.000000,0.000000,4236.410156,4963.077148,4154.871582,4209.230957,4204.102539,0.000000,3.000000,73.000000,,,,0.000000,4.000000,2.000000,4.000000,4.000000,4.000000,83.333336,1.000000,66.666664,4.000000,1.000000,4.000000,4.000000,3.000000,12.000000,0.000000,0.730705,0.021484,0.630371,-0.261230,0.951186,0.304204,-0.207034,7.416511,5.875635,11.547232
1618540669.499651,25.000000,0.000000,4232.820313,4946.153809,4151.794922,4209.743652,4206.666504,0.000000,3.000000,73.000000,,,,0.000000,4.000000,2.000000,4.000000,4.000000,4.000000,83.333336,,,,,,,,,,,,,,,,,,,
1618540669.507466,26.000000,0.000000,4207.692383,4917.436035,4146.666504,4196.922852,4201.538574,0.000000,3.000000,73.000000,,,,0.000000,4.000000,2.000000,4.000000,4.000000,4.000000,83.333336,,,,,,,,13.000000,0.000000,0.730705,0.021484,0.630371,-0.261230,0.937026,0.288579,-0.211917,10.323597,3.852503,11.708447
1618540669.515282,27.000000,0.000000,4198.974121,4949.230957,4153.333496,4199.487305,4203.077148,0.000000,3.000000,73.000000,,,,0.000000,4.000000,2.000000,4.000000,4.000000,4.000000,83.333336,,,,,,,,,,,,,,,,,,,
1618540669.522998,28.000000,0.000000,4218.461426,4977.948730,4167.179688,4214.871582,4224.615234,0.000000,3.000000,73.000000,,,,0.000000,4.000000,2.000000,4.000000,4.000000,4.000000,83.333336,,,,,,,,14.000000,0.000000,0.730705,0.021484,0.630371,-0.261230,0.944350,0.298344,-0.198245,10.068837,1.912053,11.733910
1618540669.530813,29.000000,0.000000,4231.794922,4957.436035,4174.871582,4215.897461,4242.051270,0.000000,3.000000,73.000000,,,,0.000000,4.000000,2.000000,4.000000,4.000000,4.000000,83.333336,,,,,,,,,,,,,,,,,,,
1618540669.538629,30.000000,0.000000,4229.230957,4942.563965,4176.410156,4218.974121,4241.538574,0.000000,3.000000,73.000000,,,,0.000000,4.000000,2.000000,4.000000,4.000000,4.000000,83.333336,,,,,,,,15.000000,0.000000,0.730494,0.021484,0.630615,-0.261230,0.940444,0.308598,-0.220218,12.650875,0.105833,11.756825
1618540669.546444,31.000000,0.000000,4227.692383,4937.948730,4174.358887,4232.307617,4237.436035,0.000000,3.000000,73.000000,,,,0.000000,4.000000,2.000000,4.000000,4.000000,4.000000,83.333336,,,,,,,,,,,,,,,,,,,
1618540669.554260,32.000000,0.000000,4227.692383,4934.871582,4163.077148,4234.871582,4240.512695,0.000000,3.000000,73.000000,,,,0.000000,4.000000,2.000000,4.000000,4.000000,4.000000,83.333336,,,,,,,,16.000000,0.000000,0.730501,0.021240,0.630615,-0.261230,0.935561,0.299809,-0.205081,11.206342,-1.459950,11.837266
1618540669.562076,33.000000,0.000000,4228.205078,4951.282227,4149.743652,4225.128418,4243.589844,0.000000,3.000000,73.000000,,,,0.000000,4.000000,2.000000,4.000000,4.000000,4.000000,83.333336,,,,,,,,,,,,,,,,,,,
1618540669.569891,34.000000,0.000000,4229.743652,4964.102539,4146.153809,4221.538574,4243.589844,0.000000,3.000000,73.000000,,,,0.000000,4.000000,2.000000,4.000000,4.000000,4.000000,83.333336,,,,,,,,17.000000,0.000000,0.730501,0.021240,0.630615,-0.261230,0.940932,0.299321,-0.218265,13.854075,-2.869154,11.790031
1618540669.577707,35.000000,0.000000,4223.589844,4969.230957,4150.256348,4223.077148,4237.948730,0.000000,3.000000,73.000000,,,,0.000000,4.000000,2.000000,4.000000,4.000000,4.000000,83.333336,,,,,,,,,,,,,,,,,,,
1618540669.585522,36.000000,0.000000,4212.307617,4982.563965,4158.461426,4223.589844,4229.743652,0.000000,3.000000,73.000000,,,,0.000000,4.000000,2.000000,4.000000,4.000000,4.000000,83.333336,,,,,,,,18.000000,0.000000,0.730297,0.020996,0.630859,-0.261230,0.941421,0.284672,-0.206058,15.339806,-4.077623,11.687704
1618540669.593338,37.000000,0.000000,4209.230957,4958.974121,4173.333496,4220.000000,4231.794922,0.000000,3.000000,73.000000,,,,0.000000,4.000000,2.000000,4.000000,4.000000,4.000000,83.333336,,,,,,,,,,,,,,,,,,,
1618540669.601054,38.000000,0.000000,4219.487305,4904.102539,4189.743652,4223.077148,4247.692383,0.000000,3.000000,73.000000,,,,0.000000,4.000000,2.000000,4.000000,4.000000,4.000000,83.333336,,,,,,,,19.000000,0.000000,0.730304,0.020752,0.630859,-0.261230,0.952651,0.312505,-0.222171,13.746010,-1.396877,11.834872
1618540669.608869,39.000000,0.000000,4228.205078,4913.333496,4190.256348,4240.000000,4260.000000,0.000000,3.000000,73.000000,,,,0.000000,4.000000,2.000000,4.000000,4.000000,4.000000,83.333336,,,,,,,,,,,,,,,,,,,
1618540669.616685,40.000000,0.000000,4221.538574,4983.077148,4176.410156,4244.615234,4254.871582,0.000000,3.000000,73.000000,,,,0.000000,4.000000,2.000000,4.000000,4.000000,4.000000,83.333336,,,,,,,,20.000000,0.000000,0.730093,0.020752,0.631104,-0.261230,0.953140,0.306645,-0.208011,13.208824,-2.812389,11.907508
1618540669.624501,41.000000,0.000000,4217.948730,4990.256348,4171.282227,4233.846191,4245.641113,0.000000,3.000000,73.000000,,,,0.000000,4.000000,2.000000,4.000000,4.000000,4.000000,83.333336,,,,,,,,,,,,,,,,,,,
1618540669.632316,42.000000,0.000000,4224.102539,4909.743652,4165.641113,4227.692383,4243.589844,0.000000,3.000000,73.000000,,,,0.000000,4.000000,2.000000,4.000000,4.000000,4.000000,83.333336,,,,,,,,21.000000,0.000000,0.729896,0.020264,0.631348,-0.261230,0.951675,0.300298,-0.216800,8.956988,-0.317981,11.972879
1618540669.640132,43.000000,0.000000,4214.871582,4898.974121,4150.769043,4217.436035,4238.461426,0.000000,3.000000,73.000000,,,,0.000000,4.000000,2.000000,4.000000,4.000000,4.000000,83.333336,,,,,,,,,,,,,,,,,,,
1618540669.647947,44.000000,0.000000,4199.487305,4993.333496,4146.666504,4202.563965,4232.307617,0.000000,3.000000,73.000000,,,,0.000000,4.000000,2.000000,4.000000,4.000000,4.000000,83.333336,,,,,,,,22.000000,0.000000,0.729685,0.020264,0.631592,-0.261230,0.934585,0.296391,-0.219242,5.070521,2.106431,11.852268
1618540669.655763,45.000000,0.000000,4209.743652,4983.589844,4150.769043,4200.000000,4243.589844,0.000000,3.000000,73.000000,,,,0.000000,4.000000,2.000000,4.000000,4.000000,4.000000,83.333336,,,,,,,,,,,,,,,,,,,
1618540669.663579,46.000000,0.000000,4223.589844,4902.051270,4149.743652,4204.615234,4255.897461,0.000000,3.000000,73.000000,,,,0.000000,4.000000,2.000000,4.000000,4.000000,4.000000,83.333336,,,,,,,,23.000000,0.000000,0.729692,0.020020,0.631592,-0.261230,0.944350,0.309575,-0.231937,4.384023,4.108957,11.743718
1618540669.671294,47.000000,0.000000,4212.307617,4941.025879,4151.794922,4196.410156,4248.205078,0.000000,3.000000,73.000000,,,,0.000000,4.000000,2.000000,4.000000,4.000000,4.000000,83.333336,,,,,,,,,,,,,,,,,,,
1618540669.679110,48.000000,0.000000,4204.102539,5002.563965,4156.922852,4180.512695,4238.974121,0.000000,3.000000,73.000000,,,,0.000000,4.000000,2.000000,4.000000,4.000000,4.000000,83.333336,,,,,,,,24.000000,0.000000,0.729567,0.020020,0.631836,-0.260986,0.941421,0.288579,-0.204593,3.646544,2.142862,11.705838
1618540669.686925,49.000000,0.000000,4202.563965,4982.051270,4156.410156,4161.538574,4235.897461,0.000000,3.000000,73.000000,,,,0.000000,4.000000,2.000000,4.000000,4.000000,4.000000,83.333336,,,,,,,,,,,,,,,,,,,
1618540669.694741,50.000000,0.000000,4188.717773,4956.410156,4155.384766,4139.487305,4227.179688,0.000000,3.000000,73.000000,,,,0.000000,4.000000,2.000000,4.000000,4.000000,4.000000,83.333336,,,,,,,,25.000000,0.000000,0.729443,0.020020,0.632080,-0.260742,0.938003,0.294926,-0.206058,3.162259,0.433191,11.671746
1618540669.702557,51.000000,0.000000,4178.974121,4935.897461,4158.974121,4131.794922,4216.922852,0.000000,3.000000,73.000000,,,,0.000000,4.000000,2.000000,4.000000,4.000000,4.000000,83.333336,,,,,,,,,,,,,,,,,,,
1618540669.710372,52.000000,0.000000,4192.820313,4920.000000,4169.230957,4141.025879,4226.666504,0.000000,3.000000,73.000000,,,,0.000000,4.000000,2.000000,4.000000,4.000000,4.000000,83.333336,,,,,,,,26.000000,0.000000,0.729450,0.019775,0.632080,-0.260742,0.933120,0.301274,-0.199222,-0.144735,2.782487,11.581248
1618540669.718188,53.000000,0.000000,4208.205078,4944.615234,4178.974121,4149.230957,4246.666504,0.000000,3.000000,73.000000,,,,0.000000,4.000000,2.000000,4.000000,4.000000,4.000000,83.333336,,,,,,,,,,,,,,,,,,,
1618540669.726003,54.000000,0.000000,4205.128418,4956.922852,4176.410156,4147.692383,4254.358887,0.000000,3.000000,73.000000,,,,0.000000,4.000000,2.000000,4.000000,4.000000,4.000000,83.333336,,,,,,,,27.000000,0.000000,0.729326,0.019775,0.632324,-0.260498,0.940932,0.294926,-0.192874,0.647338,0.949039,11.619431
1618540669.733819,55.000000,0.000000,4199.487305,4924.102539,4175.384766,4141.538574,4254.871582,0.000000,3.000000,73.000000,,,,0.000000,4.000000,2.000000,4.000000,4.000000,4.000000,83.333336,,,,,,,,,,,,,,,,,,,
1618540669.741535,56.000000,0.000000,4195.897461,4914.871582,4178.974121,4143.589844,4258.974121,0.000000,3.000000,73.000000,,,,0.000000,4.000000,2.000000,4.000000,4.000000,4.000000,83.333336,,,,,,,,28.000000,0.000000,0.729114,0.019775,0.632568,-0.260498,0.944839,0.293462,-0.208499,-2.408164,3.067303,11.534164
1618540669.749350,57.000000,0.000000,4194.358887,4929.230957,4178.974121,4150.256348,4259.487305,0.000000,3.000000,73.000000,,,,0.000000,4.000000,2.000000,4.000000,4.000000,4.000000,83.333336,,,,,,,,,,,,,,,,,,,
1618540669.757165,58.000000,0.000000,4196.922852,4884.615234,4181.025879,4153.846191,4256.410156,0.000000,3.000000,73.000000,,,,0.000000,4.000000,2.000000,4.000000,4.000000,4.000000,83.333336,,,,,,,,29.000000,0.000000,0.729033,0.019531,0.632568,-0.260742,0.951675,0.305669,-0.204593,-1.389748,1.325004,11.517240
1618540669.764981,59.000000,0.000000,4195.384766,4835.384766,4190.256348,4148.205078,4256.410156,0.000000,3.000000,73.000000,,,,0.000000,4.000000,2.000000,4.000000,4.000000,4.000000,83.333336,,,,,,,,,,,,,,,,,,,
1618540669.772796,60.000000,0.000000,4189.230957,4910.769043,4189.230957,4145.641113,4255.897461,0.000000,3.000000,73.000000,,,,0.000000,4.000000,2.000000,4.000000,4.000000,4.000000,83.333336,,,,,,,,30.000000,0.000000,0.728821,0.019531,0.632813,-0.260742,0.941421,0.291508,-0.203128,-0.293727,-0.362696,11.382377
1618540669.780611,61.000000,0.000000,4187.692383,4984.102539,4169.743652,4150.769043,4264.615234,0.000000,3.000000,73.000000,,,,0.000000,4.000000,2.000000,4.000000,4.000000,4.000000,83.333336,,,,,,,,,,,,,,,,,,,
1618540669.788427,62.000000,0.000000,4188.717773,4935.897461,4153.333496,4153.846191,4281.025879,0.000000,3.000000,73.000000,,,,0.000000,4.000000,2.000000,4.000000,4.000000,4.000000,83.333336,,,,,,,,31.000000,0.000000,0.728740,0.019287,0.632813,-0.260986,0.949233,0.300786,-0.211917,-3.314938,2.006373,11.380631
1618540669.796242,63.000000,0.000000,4179.487305,4931.794922,4150.769043,4148.205078,4287.179688,0.000000,3.000000,73.000000,,,,0.000000,4.000000,2.000000,4.000000,4.000000,4.000000,83.333336,,,,,,,,,,,,,,,,,,,
1618540669.804057,64.000000,0.000000,4172.307617,5010.256348,4156.410156,4135.897461,4283.077148,450.000000,3.000000,73.000000,,,,0.000000,4.000000,2.000000,4.000000,4.000000,4.000000,83.333336,,,,,,,,32.000000,0.000000,0.728659,0.019043,0.632813,-0.261230,0.950698,0.303227,-0.201175,-3.103075,0.250536,11.319244
1618540669.811773,65.000000,0.000000,4172.307617,4987.692383,4164.615234,4129.743652,4278.974121,450.000000,3.000000,73.000000,,,,0.000000,4.000000,2.000000,4.000000,4.000000,4.000000,83.333336,,,,,,,,,,,,,,,,,,,
1618540669.819588,66.000000,0.000000,4167.179688,4885.641113,4173.846191,4129.743652,4272.307617,16209.000000,3.000000,73.000000,,,,0.000000,4.000000,2.000000,4.000000,4.000000,4.000000,83.333336,,,,,,,,33.000000,0.000000,0.728454,0.018799,0.633057,-0.261230,0.943862,0.306157,-0.207523,-1.955352,-1.269902,11.144366
1618540669.827403,67.000000,0.000000,4164.615234,4883.589844,4181.025879,4127.692383,4262.051270,450.000000,3.000000,73.000000,,,,0.000000,4.000000,2.000000,4.000000,4.000000,4.000000,83.333336,,,,,,,,,,,,,,,,,,,
1618540669.835118,68.000000,0.000000,4174.871582,4932.820313,4183.589844,4129.743652,4258.974121,127.000000,3.000000,73.000000,,,,0.000000,4.000000,1.000000,4.000000,4.000000,4.000000,75.000000,,,,,,,,34.000000,0.000000,0.728454,0.018799,0.633057,-0.261230,0.933120,0.315435,-0.204593,1.829105,-2.757926,11.166422
1618540669.842933,69.000000,0.000000,4185.128418,4934.358887,4180.000000,4144.615234,4266.666504,450.000000,3.000000,73.000000,,,,0.000000,4.000000,1.000000,4.000000,4.000000,4.000000,75.000000,,,,,,,,,,,,,,,,,,,
1618540669.850649,70.000000,0.000000,4182.051270,4926.153809,4165.128418,4159.487305,4274.871582,16165.000000,3.000000,73.000000,,,,0.000000,4.000000,1.000000,4.000000,4.000000,4.000000,75.000000,,,,,,,,35.000000,0.000000,0.728466,0.018311,0.633057,-0.261230,0.947280,0.309087,-0.189944,-1.224943,-0.089519,11.186272
1618540669.858465,71.000000,0.000000,4177.436035,4934.871582,4153.333496,4157.948730,4281.025879,450.000000,3.000000,73.000000,,,,0.000000,4.000000,1.000000,4.000000,4.000000,4.000000,75.000000,,,,,,,,,,,,,,,,,,,
1618540669.866280,72.000000,0.000000,4187.179688,4954.871582,4157.436035,4158.461426,4295.897461,450.000000,3.000000,73.000000,,,,0.000000,4.000000,1.000000,4.000000,4.000000,4.000000,75.000000,,,,,,,,36.000000,0.000000,0.728260,0.018066,0.633301,-0.261230,0.938491,0.321294,-0.190433,2.606104,-1.456321,11.204136
1618540669.874096,73.000000,0.000000,4196.410156,4968.717773,4167.179688,4171.794922,4311.282227,313.000000,3.000000,73.000000,,,,0.000000,4.000000,1.000000,4.000000,4.000000,4.000000,75.000000,,,,,,,,,,,,,,,,,,,
1618540669.881911,74.000000,0.000000,4193.333496,4976.922852,4166.153809,4174.358887,4308.205078,450.000000,3.000000,73.000000,,,,0.000000,4.000000,1.000000,4.000000,4.000000,4.000000,75.000000,,,,,,,,37.000000,0.000000,0.728266,0.017822,0.633301,-0.261230,0.938003,0.316411,-0.204593,3.182909,0.962295,11.220215
1618540669.889727,75.000000,0.000000,4187.179688,4964.615234,4162.563965,4166.666504,4296.922852,16208.000000,3.000000,73.000000,,,,0.000000,4.000000,1.000000,4.000000,4.000000,4.000000,75.000000,,,,,,,,,,,,,,,,,,,
1618540669.897543,76.000000,0.000000,4184.102539,4944.615234,4169.230957,4172.820313,4291.282227,450.000000,3.000000,73.000000,,,,0.000000,4.000000,1.000000,4.000000,4.000000,4.000000,75.000000,,,,,,,,38.000000,0.000000,0.728059,0.017578,0.633545,-0.261230,0.952163,0.304692,-0.189456,3.642217,3.139050,11.174870
1618540669.905358,77.000000,0.000000,4179.487305,4928.205078,4182.051270,4180.512695,4291.282227,450.000000,3.000000,73.000000,,,,0.000000,4.000000,1.000000,4.000000,4.000000,4.000000,75.000000,,,,,,,,,,,,,,,,,,,
1618540669.913174,78.000000,0.000000,4180.512695,4903.589844,4191.282227,4173.333496,4290.256348,450.000000,3.000000,73.000000,,,,0.000000,4.000000,1.000000,4.000000,4.000000,4.000000,75.000000,,,,,,,,39.000000,0.000000,0.727853,0.017334,0.633789,-0.261230,0.937026,0.312016,-0.190921,4.235042,5.098129,11.313505
1618540669.920989,79.000000,0.000000,4185.128418,4912.307617,4194.871582,4168.717773,4284.615234,16208.000000,3.000000,73.000000,,,,0.000000,4.000000,1.000000,4.000000,4.000000,4.000000,75.000000,,,,,,,,,,,,,,,,,,,
1618540669.928705,80.000000,0.000000,4182.051270,4924.615234,4195.384766,4175.384766,4281.538574,450.000000,3.000000,73.000000,,,,0.000000,4.000000,1.000000,4.000000,4.000000,4.000000,75.000000,,,,,,,,40.000000,0.000000,0.728266,0.017822,0.633301,-0.261230,0.938003,0.316411,-0.204593,4.648952,6.861300,11.318646
1618540669.936520,81.000000,0.000000,4177.436035,4908.717773,4187.692383,4173.846191,4289.743652,450.000000,3.000000,73.000000,,,,0.000000,4.000000,1.000000,4.000000,4.000000,4.000000,75.000000,,,,,,,,,,,,,,,,,,,
1618540669.944336,82.000000,0.000000,4182.051270,4942.051270,4178.974121,4168.205078,4300.512695,450.000000,3.000000,73.000000,,,,0.000000,4.000000,1.000000,4.000000,4.000000,4.000000,75.000000,,,,,,,,41.000000,0.000000,0.727853,0.017334,0.633789,-0.261230,0.937026,0.312016,-0.190921,5.141103,8.448153,11.442904
1618540669.952151,83.000000,0.000000,4180.000000,5001.025879,4178.974121,4172.307617,4301.538574,16208.000000,3.000000,73.000000,,,,0.000000,4.000000,1.000000,4.000000,4.000000,4.000000,75.000000,,,,,,,,,,,,,,,,,,,
1618540669.959966,84.000000,0.000000,4168.205078,4992.307617,4183.589844,4176.922852,4296.410156,450.000000,3.000000,73.000000,,,,0.000000,4.000000,1.000000,4.000000,4.000000,4.000000,75.000000,,,,,,,,42.000000,0.000000,0.727853,0.017334,0.633789,-0.261230,0.948745,0.310552,-0.199222,5.524223,6.167769,11.494922
1618540669.967782,85.000000,0.000000,4168.205078,4967.692383,4189.230957,4173.846191,4297.948730,450.000000,3.000000,73.000000,,,,0.000000,4.000000,1.000000,4.000000,4.000000,4.000000,75.000000,,,,,,,,,,,,,,,,,,,
1618540669.975597,86.000000,0.000000,4178.974121,4962.051270,4191.282227,4164.102539,4304.102539,450.000000,3.000000,73.000000,,,,0.000000,4.000000,1.000000,4.000000,4.000000,4.000000,75.000000,,,,,,,,43.000000,0.000000,0.727858,0.017090,0.633789,-0.261230,0.938979,0.313970,-0.204105,5.809216,4.115424,11.362290
1618540669.983412,87.000000,0.000000,4180.000000,4931.794922,4193.333496,4157.948730,4303.589844,16208.000000,3.000000,73.000000,,,,0.000000,4.000000,1.000000,4.000000,4.000000,4.000000,75.000000,,,,,,,,,,,,,,,,,,,
1618540669.991128,88.000000,0.000000,4177.948730,4927.692383,4198.974121,4154.871582,4299.487305,450.000000,3.000000,73.000000,,,,0.000000,4.000000,1.000000,4.000000,4.000000,4.000000,75.000000,1.000000,75.000000,4.000000,1.000000,4.000000,4.000000,4.000000,44.000000,0.000000,0.727646,0.017090,0.634033,-0.261230,0.931655,0.306157,-0.202152,2.237526,6.036681,11.183107
1618540669.998944,89.000000,0.000000,4185.128418,4941.538574,4201.538574,4150.256348,4290.769043,450.000000,3.000000,73.000000,,,,0.000000,4.000000,1.000000,4.000000,4.000000,4.000000,75.000000,,,,,,,,,,,,,,,,,,,
1618540670.006759,90.000000,0.000000,4193.846191,4877.948730,4197.436035,4162.563965,4285.128418,450.000000,3.000000,73.000000,,,,0.000000,4.000000,1.000000,4.000000,4.000000,4.000000,75.000000,,,,,,,,45.000000,0.000000,0.727646,0.017090,0.634033,-0.261230,0.943374,0.309575,-0.186526,4.884911,3.877813,11.261104
1618540670.014575,91.000000,0.000000,4198.461426,4875.384766,4191.282227,4186.666504,4296.410156,16208.000000,3.000000,73.000000,,,,0.000000,4.000000,1.000000,4.000000,4.000000,4.000000,75.000000,,,,,,,,,,,,,,,,,,,
1618540670.022390,92.000000,0.000000,4196.922852,4980.000000,4178.974121,4186.153809,4307.179688,450.000000,3.000000,73.000000,,,,0.000000,4.000000,1.000000,4.000000,4.000000,4.000000,75.000000,,,,,,,,46.000000,0.000000,0.727558,0.017090,0.634033,-0.261475,0.937514,0.311040,-0.202152,5.233835,2.054463,11.151855
1618540670.030206,93.000000,0.000000,4190.769043,4985.641113,4168.205078,4169.230957,4297.436035,450.000000,3.000000,73.000000,,,,0.000000,4.000000,1.000000,4.000000,4.000000,4.000000,75.000000,,,,,,,,,,,,,,,,,,,
1618540670.038022,94.000000,0.000000,4188.717773,4944.615234,4177.436035,4164.615234,4283.589844,450.000000,3.000000,73.000000,,,,0.000000,4.000000,1.000000,4.000000,4.000000,4.000000,75.000000,,,,,,,,47.000000,0.000000,0.727558,0.017090,0.634033,-0.261475,0.940932,0.309575,-0.197757,5.547867,0.293817,11.232977
1618540670.045837,95.000000,0.000000,4191.282227,5011.282227,4190.256348,4167.179688,4286.666504,16208.000000,3.000000,73.000000,,,,0.000000,4.000000,1.000000,4.000000,4.000000,4.000000,75.000000,,,,,,,,,,,,,,,,,,,
1618540670.053653,96.000000,0.000000,4193.333496,5026.153809,4190.256348,4166.153809,4292.820313,450.000000,3.000000,73.000000,,,,0.000000,4.000000,1.000000,4.000000,4.000000,4.000000,75.000000,,,,,,,,48.000000,0.000000,0.727564,0.016846,0.634033,-0.261475,0.944350,0.320806,-0.196292,5.830495,-1.111318,11.126540
1618540670.061369,97.000000,0.000000,4190.256348,4916.410156,4193.333496,4159.487305,4287.179688,450.000000,3.000000,73.000000,,,,0.000000,4.000000,1.000000,4.000000,4.000000,4.000000,75.000000,,,,,,,,,,,,,,,,,,,
1618540670.069184,98.000000,0.000000,4181.538574,4905.128418,4199.487305,4146.666504,4272.307617,450.000000,3.000000,73.000000,,,,0.000000,4.000000,1.000000,4.000000,4.000000,4.000000,75.000000,,,,,,,,49.000000,0.000000,0.727564,0.016846,0.634033,-0.261475,0.944839,0.314946,-0.197269,6.025045,-2.435755,11.030747
1618540670.077000,99.000000,0.000000,4180.000000,4980.512695,4200.000000,4149.743652,4266.666504,16208.000000,3.000000,73.000000,,,,0.000000,4.000000,1.000000,4.000000,4.000000,4.000000,75.000000,,,,,,,,,,,,,,,,,,,
1618540670.084815,100.000000,0.000000,4188.205078,4962.563965,4196.922852,4169.743652,4270.769043,450.000000,3.000000,73.000000,,,,0.000000,4.000000,1.000000,4.000000,4.000000,4.000000,75.000000,,,,,,,,50.000000,0.000000,0.727351,0.016846,0.634277,-0.261475,0.946792,0.322759,-0.183597,2.312142,0.260251,11.064164
1618540670.092631,101.000000,0.000000,4190.256348,4911.794922,4183.077148,4178.974121,4271.794922,450.000000,3.000000,73.000000,,,,0.000000,4.000000,1.000000,4.000000,4.000000,4.000000,75.000000,,,,,,,,,,,,,,,,,,,
1618540670.100447,102.000000,0.000000,4187.179688,4914.358887,4162.563965,4175.384766,4279.487305,450.000000,3.000000,73.000000,,,,0.000000,4.000000,1.000000,4.000000,4.000000,4.000000,75.000000,,,,,,,,51.000000,0.000000,0.727351,0.016846,0.634277,-0.261475,0.950210,0.313970,-0.191409,5.610034,-1.201343,11.034425
1618540670.108262,103.000000,0.000000,4190.769043,4956.922852,4167.179688,4176.922852,4290.256348,16208.000000,3.000000,73.000000,,,,0.000000,4.000000,1.000000,4.000000,4.000000,4.000000,75.000000,,,,,,,,,,,,,,,,,,,
1618540670.116078,104.000000,0.000000,4194.358887,5009.230957,4189.743652,4184.615234,4290.769043,450.000000,3.000000,73.000000,,,,0.000000,4.000000,1.000000,4.000000,4.000000,4.000000,75.000000,,,,,,,,52.000000,0.000000,0.727144,0.016602,0.634521,-0.261475,0.941909,0.320806,-0.195804,5.766815,-2.576593,11.067474
1618540670.123893,105.000000,0.000000,4190.256348,5002.563965,4194.358887,4191.282227,4285.128418,450.000000,3.000000,73.000000,,,,0.000000,4.000000,1.000000,4.000000,4.000000,4.000000,75.000000,,,,,,,,,,,,,,,,,,,
1618540670.131609,106.000000,0.000000,4180.512695,4923.077148,4186.666504,4187.692383,4279.487305,450.000000,3.000000,73.000000,,,,0.000000,4.000000,1.000000,4.000000,4.000000,4.000000,75.000000,,,,,,,,53.000000,0.000000,0.727231,0.016602,0.634521,-0.261230,0.933608,0.313481,-0.185550,5.070503,-3.993764,11.097219
1618540670.139425,107.000000,0.000000,4176.922852,4914.871582,4188.717773,4174.871582,4267.692383,16208.000000,3.000000,73.000000,,,,0.000000,4.000000,1.000000,4.000000,4.000000,4.000000,75.000000,,,,,,,,,,,,,,,,,,,
1618540670.147240,108.000000,0.000000,4176.922852,4990.256348,4195.384766,4161.025879,4252.820313,450.000000,3.000000,73.000000,,,,0.000000,4.000000,1.000000,4.000000,4.000000,4.000000,75.000000,,,,,,,,54.000000,0.000000,0.727231,0.016602,0.634521,-0.261230,0.941421,0.304204,-0.194339,8.272005,-5.089772,11.183805
1618540670.155056,109.000000,0.000000,4167.179688,4982.051270,4195.897461,4154.871582,4244.102539,450.000000,3.000000,73.000000,,,,0.000000,4.000000,1.000000,4.000000,4.000000,4.000000,75.000000,,,,,,,,,,,,,,,,,,,
1618540670.162871,110.000000,0.000000,4160.000000,4902.563965,4201.025879,4157.948730,4236.922852,450.000000,3.000000,73.000000,,,,0.000000,4.000000,1.000000,4.000000,4.000000,4.000000,75.000000,,,,,,,,55.000000,0.000000,0.727018,0.016602,0.634766,-0.261230,0.934585,0.307622,-0.198245,8.162589,-2.367626,11.082285
1618540670.170687,111.000000,0.000000,4169.743652,4891.282227,4213.846191,4171.282227,4235.384766,16208.000000,3.000000,73.000000,,,,0.000000,4.000000,1.000000,4.000000,4.000000,4.000000,75.000000,,,,,,,,,,,,,,,,,,,
1618540670.178503,112.000000,0.000000,4184.102539,4945.641113,4218.974121,4189.230957,4247.692383,450.000000,3.000000,73.000000,,,,0.000000,4.000000,1.000000,4.000000,4.000000,4.000000,75.000000,,,,,,,,56.000000,0.000000,0.727018,0.016602,0.634766,-0.261230,0.953140,0.310063,-0.196780,7.944484,0.321567,10.990918
1618540670.186318,113.000000,0.000000,4187.179688,4954.358887,4202.051270,4194.871582,4260.512695,450.000000,3.000000,73.000000,,,,0.000000,4.000000,1.000000,4.000000,4.000000,4.000000,75.000000,,,,,,,,,,,,,,,,,,,
1618540670.194134,114.000000,0.000000,4178.974121,4931.794922,4181.538574,4186.666504,4256.410156,450.000000,3.000000,73.000000,,,,0.000000,4.000000,1.000000,4.000000,4.000000,4.000000,75.000000,,,,,,,,57.000000,0.000000,0.727018,0.016602,0.634766,-0.261230,0.941909,0.308110,-0.195315,6.910774,-1.205974,10.968502
1618540670.201949,115.000000,0.000000,4175.897461,4976.410156,4184.102539,4182.563965,4250.256348,16208.000000,3.000000,73.000000,,,,0.000000,4.000000,1.000000,4.000000,4.000000,4.000000,75.000000,,,,,,,,,,,,,,,,,,,
1618540670.209665,116.000000,0.000000,4183.589844,5015.384766,4195.384766,4187.692383,4260.512695,450.000000,3.000000,73.000000,,,,0.000000,4.000000,1.000000,4.000000,4.000000,4.000000,75.000000,,,,,,,,58.000000,0.000000,0.727013,0.016846,0.634766,-0.261230,0.949722,0.317876,-0.208499,9.928249,-2.461130,10.948329
1618540670.217481,117.000000,0.000000,4190.769043,4956.410156,4199.487305,4186.153809,4267.179688,450.000000,3.000000,73.000000,,,,0.000000,4.000000,1.000000,4.000000,4.000000,4.000000,75.000000,,,,,,,,,,,,,,,,,,,
1618540670.225296,118.000000,0.000000,4193.333496,4898.461426,4201.538574,4186.666504,4263.077148,450.000000,3.000000,73.000000,,,,0.000000,4.000000,1.000000,4.000000,4.000000,4.000000,75.000000,,,,,,,,59.000000,0.000000,0.727013,0.016846,0.634766,-0.261230,0.945327,0.313970,-0.198734,9.653209,-3.710401,10.930173
1618540670.233112,119.000000,0.000000,4197.948730,4916.410156,4208.205078,4191.794922,4262.563965,16208.000000,3.000000,73.000000,,,,0.000000,4.000000,1.000000,4.000000,4.000000,4.000000,75.000000,,,,,,,,,,,,,,,,,,,
1618540670.240928,120.000000,0.000000,4202.563965,4940.512695,4215.897461,4193.846191,4264.102539,450.000000,3.000000,73.000000,,,,0.000000,4.000000,1.000000,4.000000,4.000000,4.000000,75.000000,,,,,,,,60.000000,0.000000,0.726799,0.016846,0.635010,-0.261230,0.943862,0.316411,-0.197269,8.508442,-4.954376,11.033463
1618540670.248743,121.000000,0.000000,4206.153809,4930.769043,4216.922852,4201.025879,4261.538574,450.000000,3.000000,73.000000,,,,0.000000,4.000000,1.000000,4.000000,4.000000,4.000000,75.000000,,,,,,,,,,,,,,,,,,,
1618540670.256559,122.000000,0.000000,4210.769043,4904.102539,4208.205078,4216.410156,4264.102539,450.000000,3.000000,73.000000,,,,0.000000,4.000000,1.000000,4.000000,4.000000,4.000000,75.000000,,,,,,,,61.000000,0.000000,0.726799,0.016846,0.635010,-0.261230,0.936538,0.305180,-0.190921,6.700552,-2.126139,10.946978
1618540670.264374,123.000000,0.000000,4209.230957,4913.846191,4198.461426,4223.589844,4272.820313,16208.000000,3.000000,73.000000,,,,0.000000,4.000000,1.000000,4.000000,4.000000,4.000000,75.000000,,,,,,,,,,,,,,,,,,,
1618540670.272090,124.000000,0.000000,4208.717773,4976.410156,4200.000000,4213.846191,4280.512695,450.000000,3.000000,73.000000,,,,0.000000,4.000000,1.000000,4.000000,4.000000,4.000000,75.000000,,,,,,,,62.000000,0.000000,0.726799,0.016846,0.635010,-0.261230,0.933120,0.313481,-0.192874,8.901634,-3.528540,10.928956
1618540670.279906,125.000000,0.000000,4219.487305,4987.179688,4205.128418,4208.205078,4288.205078,450.000000,3.000000,73.000000,,,,0.000000,4.000000,1.000000,4.000000,4.000000,4.000000,75.000000,,,,,,,,,,,,,,,,,,,
1618540670.287721,126.000000,0.000000,4223.077148,4952.307617,4204.102539,4212.307617,4289.743652,450.000000,3.000000,73.000000,,,,0.000000,4.000000,1.000000,4.000000,4.000000,4.000000,75.000000,,,,,,,,63.000000,0.000000,0.726674,0.016846,0.635254,-0.260986,0.942885,0.293950,-0.190921,10.882608,-4.671070,10.972552
1618540670.295537,127.000000,0.000000,4215.384766,4976.410156,4194.871582,4216.922852,4282.563965,238.000000,3.000000,73.000000,,,,0.000000,4.000000,1.000000,4.000000,4.000000,4.000000,75.000000,,,,,,,,,,,,,,,,,,,
1618540670.303352,0.000000,0.000000,4218.461426,5016.922852,4183.589844,4218.461426,4277.948730,450.000000,3.000000,73.000000,,,,0.000000,4.000000,1.000000,4.000000,4.000000,4.000000,75.000000,,,,,,,,0.000000,0.000000,0.726799,0.016846,0.635010,-0.261230,0.936538,0.305180,-0.190921,9.495271,-5.759163,11.011789
1618540670.311168,1.000000,0.000000,4226.666504,4985.128418,4177.948730,4205.641113,4278.461426,450.000000,3.000000,73.000000,,,,0.000000,4.000000,1.000000,4.000000,4.000000,4.000000,75.000000,,,,,,,,,,,,,,,,,,,
1618540670.318984,2.000000,0.000000,4216.922852,4927.179688,4175.384766,4193.333496,4273.333496,16213.000000,3.000000,73.000000,,,,0.000000,4.000000,1.000000,4.000000,4.000000,4.000000,75.000000,,,,,,,,1.000000,0.000000,0.726674,0.016846,0.635254,-0.260986,0.938979,0.318364,-0.200687,9.383159,-6.618815,10.927472
1618540670.326799,3.000000,0.000000,4207.692383,4943.589844,4175.897461,4204.615234,4263.589844,450.000000,3.000000,73.000000,,,,0.000000,4.000000,1.000000,4.000000,4.000000,4.000000,75.000000,,,,,,,,,,,,,,,,,,,
1618540670.334615,4.000000,0.000000,4210.256348,4998.461426,4180.512695,4223.077148,4263.077148,131.000000,3.000000,73.000000,,,,0.000000,4.000000,1.000000,4.000000,4.000000,4.000000,75.000000,,,,,,,,2.000000,0.000000,0.726761,0.016846,0.635254,-0.260742,0.941421,0.323247,-0.197757,12.093580,-7.452318,10.911401
1618540670.342430,5.000000,0.000000,4208.717773,5009.743652,4183.589844,4219.487305,4270.769043,450.000000,3.000000,73.000000,,,,0.000000,4.000000,1.000000,4.000000,4.000000,4.000000,75.000000,,,,,,,,,,,,,,,,,,,
1618540670.350146,6.000000,0.000000,4201.538574,4980.000000,4181.025879,4210.256348,4268.205078,16163.000000,3.000000,73.000000,,,,0.000000,4.000000,1.000000,4.000000,4.000000,4.000000,75.000000,,,,,,,,3.000000,0.000000,0.726636,0.016846,0.635498,-0.260498,0.952163,0.305180,-0.191409,7.893454,-4.314471,10.956753
1618540670.357962,7.000000,0.000000,4203.589844,4958.974121,4183.077148,4209.230957,4262.051270,450.000000,3.000000,73.000000,,,,0.000000,4.000000,1.000000,4.000000,4.000000,4.000000,75.000000,,,,,,,,,,,,,,,,,,,
1618540670.365777,8.000000,0.000000,4210.256348,4969.230957,4192.820313,4209.230957,4266.666504,450.000000,3.000000,73.000000,,,,0.000000,4.000000,1.000000,4.000000,4.000000,4.000000,75.000000,,,,,,,,4.000000,0.000000,0.726636,0.016846,0.635498,-0.260498,0.928237,0.307622,-0.196780,8.001339,-5.438224,10.818124
1618540670.373593,9.000000,0.000000,4207.692383,4967.692383,4199.487305,4213.846191,4270.256348,320.000000,3.000000,73.000000,,,,0.000000,4.000000,1.000000,4.000000,4.000000,4.000000,75.000000,,,,,,,,,,,,,,,,,,,
1618540670.381409,10.000000,0.000000,4203.589844,4937.436035,4201.538574,4216.922852,4265.128418,450.000000,3.000000,73.000000,,,,0.000000,4.000000,1.000000,4.000000,4.000000,4.000000,75.000000,,,,,,,,5.000000,0.000000,0.726422,0.016846,0.635742,-0.260498,0.946792,0.301762,-0.197269,6.842313,-6.449601,10.872803
1618540670.389224,11.000000,0.000000,4208.717773,4962.051270,4201.538574,4214.871582,4266.666504,16206.000000,3.000000,73.000000,,,,0.000000,4.000000,1.000000,4.000000,4.000000,4.000000,75.000000,,,,,,,,,,,,,,,,,,,
1618540670.397040,12.000000,0.000000,4221.025879,5027.179688,4202.051270,4215.384766,4271.794922,450.000000,3.000000,73.000000,,,,0.000000,4.000000,1.000000,4.000000,4.000000,4.000000,75.000000,,,,,,,,6.000000,0.000000,0.726422,0.016846,0.635742,-0.260498,0.944350,0.312016,-0.189944,6.098266,-7.359840,10.862200
1618540670.404855,13.000000,0.000000,4229.230957,4986.153809,4203.589844,4213.333496,4268.717773,450.000000,3.000000,73.000000,,,,0.000000,4.000000,1.000000,4.000000,4.000000,4.000000,75.000000,,,,,,,,,,,,,,,,,,,
1618540670.412671,14.000000,0.000000,4228.717773,4903.589844,4197.948730,4206.153809,4263.077148,450.000000,3.000000,73.000000,,,,0.000000,4.000000,1.000000,4.000000,4.000000,4.000000,75.000000,,,,,,,,7.000000,0.000000,0.726422,0.016846,0.635742,-0.260498,0.935561,0.309087,-0.208011,5.189363,-8.238872,10.852656
1618540670.420486,15.000000,0.000000,4225.641113,4947.692383,4189.743652,4209.743652,4260.512695,16206.000000,3.000000,73.000000,,,,0.000000,4.000000,1.000000,4.000000,4.000000,4.000000,75.000000,,,,,,,,,,,,,,,,,,,
1618540670.428202,16.000000,0.000000,4220.512695,5009.230957,4186.666504,4221.538574,4255.897461,0.000000,3.000000,73.000000,,,,0.000000,4.000000,1.000000,4.000000,4.000000,4.000000,75.000000,,,,,,,,8.000000,0.000000,0.726416,0.017090,0.635742,-0.260498,0.946303,0.313970,-0.197269,5.567657,-4.962554,10.844067
1618540670.436017,17.000000,0.000000,4207.179688,4971.282227,4178.461426,4214.871582,4241.538574,0.000000,3.000000,73.000000,,,,0.000000,4.000000,1.000000,4.000000,4.000000,4.000000,75.000000,,,,,,,,,,,,,,,,,,,
1618540670.443833,18.000000,0.000000,4187.179688,4961.025879,4166.153809,4196.410156,4223.589844,0.000000,3.000000,73.000000,,,,0.000000,4.000000,1.000000,4.000000,4.000000,4.000000,75.000000,,,,,,,,9.000000,0.000000,0.726416,0.017090,0.635742,-0.260498,0.933608,0.302739,-0.198245,5.788491,-5.961683,10.955968
1618540670.451648,19.000000,0.000000,4177.436035,4979.487305,4168.717773,4194.358887,4214.871582,0.000000,3.000000,73.000000,,,,0.000000,4.000000,1.000000,4.000000,4.000000,4.000000,75.000000,,,,,,,,,,,,,,,,,,,
1618540670.459463,20.000000,0.000000,4183.589844,4968.205078,4181.538574,4206.666504,4218.461426,0.000000,3.000000,73.000000,,,,0.000000,4.000000,1.000000,4.000000,4.000000,4.000000,75.000000,,,,,,,,10.000000,0.000000,0.726329,0.017090,0.635742,-0.260742,0.953140,0.312505,-0.192386,2.278689,-3.092531,10.996862
1618540670.467279,21.000000,0.000000,4198.974121,4952.307617,4186.666504,4209.743652,4233.333496,0.000000,3.000000,73.000000,,,,0.000000,4.000000,1.000000,4.000000,4.000000,4.000000,75.000000,,,,,,,,,,,,,,,,,,,
1618540670.475094,22.000000,0.000000,4214.358887,4945.128418,4191.794922,4207.692383,4244.102539,0.000000,3.000000,73.000000,,,,0.000000,4.000000,1.000000,4.000000,4.000000,4.000000,75.000000,,,,,,,,11.000000,0.000000,0.726329,0.017090,0.635742,-0.260742,0.940932,0.318853,-0.193362,2.888235,-4.398293,10.914038
1618540670.482909,23.000000,0.000000,4221.538574,4944.615234,4193.846191,4208.717773,4241.538574,0.000000,3.000000,73.000000,,,,0.000000,4.000000,1.000000,4.000000,4.000000,4.000000,75.000000,,,,,,,,,,,,,,,,,,,
1618540670.490625,24.000000,0.000000,4221.025879,4973.846191,4185.128418,4207.692383,4237.436035,0.000000,3.000000,73.000000,,,,0.000000,4.000000,1.000000,4.000000,4.000000,4.000000,75.000000,1.000000,75.000000,4.000000,1.000000,4.000000,4.000000,4.000000,12.000000,0.000000,0.726542,0.017090,0.635498,-0.260742,0.928725,0.308110,-0.197757,-0.570803,-1.685479,10.899310
1618540670.498441,25.000000,0.000000,4219.487305,5013.333496,4177.948730,4210.256348,4240.000000,0.000000,3.000000,73.000000,,,,0.000000,4.000000,1.000000,4.000000,4.000000,4.000000,75.000000,,,,,,,,,,,,,,,,,,,
1618540670.506256,26.000000,0.000000,4221.538574,4980.000000,4177.436035,4221.025879,4241.025879,0.000000,3.000000,73.000000,,,,0.000000,4.000000,1.000000,4.000000,4.000000,4.000000,75.000000,,,,,,,,13.000000,0.000000,0.726449,0.017334,0.635498,-0.260986,0.939467,0.306157,-0.200687,-1.470768,-3.072131,10.886056
1618540670.514072,27.000000,0.000000,4223.077148,4937.948730,4183.077148,4229.743652,4245.641113,0.000000,3.000000,73.000000,,,,0.000000,4.000000,1.000000,4.000000,4.000000,4.000000,75.000000,,,,,,,,,,,,,,,,,,,
1618540670.521888,28.000000,0.000000,4227.692383,4968.205078,4185.128418,4230.256348,4258.974121,0.000000,3.000000,73.000000,,,,0.000000,4.000000,1.000000,4.000000,4.000000,4.000000,75.000000,,,,,,,,14.000000,0.000000,0.726449,0.017334,0.635498,-0.260986,0.936049,0.315435,-0.195315,-1.503138,-4.320117,10.874127
1618540670.529703,29.000000,0.000000,4238.461426,4978.974121,4180.512695,4230.256348,4262.051270,0.000000,3.000000,73.000000,,,,0.000000,4.000000,1.000000,4.000000,4.000000,4.000000,75.000000,,,,,,,,,,,,,,,,,,,
1618540670.537519,30.000000,0.000000,4249.230957,4965.128418,4183.077148,4231.282227,4264.102539,0.000000,3.000000,73.000000,,,,0.000000,4.000000,1.000000,4.000000,4.000000,4.000000,75.000000,,,,,,,,15.000000,0.000000,0.726662,0.017334,0.635254,-0.260986,0.946303,0.305669,-0.193851,2.355729,-5.263859,10.983022
1618540670.545334,31.000000,0.000000,4256.410156,4992.307617,4188.205078,4234.358887,4268.717773,0.000000,3.000000,73.000000,,,,0.000000,4.000000,1.000000,4.000000,4.000000,4.000000,75.000000,,,,,,,,,,,,,,,,,,,
1618540670.553150,32.000000,0.000000,4248.205078,5010.256348,4176.410156,4233.846191,4254.871582,0.000000,3.000000,73.000000,,,,0.000000,4.000000,1.000000,4.000000,4.000000,4.000000,75.000000,,,,,,,,16.000000,0.000000,0.726656,0.017578,0.635254,-0.260986,0.955093,0.319341,-0.199222,2.897756,-6.232857,11.200658
1618540670.560966,33.000000,0.000000,4228.205078,4955.384766,4163.589844,4226.666504,4235.384766,0.000000,3.000000,73.000000,,,,0.000000,4.000000,1.000000,4.000000,4.000000,4.000000,75.000000,,,,,,,,,,,,,,,,,,,
1618540670.568681,34.000000,0.000000,4222.563965,4936.410156,4166.666504,4229.743652,4230.256348,0.000000,3.000000,73.000000,,,,0.000000,4.000000,1.000000,4.000000,4.000000,4.000000,75.000000,,,,,,,,17.000000,0.000000,0.726449,0.017334,0.635498,-0.260986,0.936049,0.315435,-0.195315,2.428534,-7.164771,11.157269
1618540670.576496,35.000000,0.000000,4225.128418,4980.512695,4161.025879,4237.948730,4233.846191,0.000000,3.000000,73.000000,,,,0.000000,4.000000,1.000000,4.000000,4.000000,4.000000,75.000000,,,,,,,,,,,,,,,,,,,
1618540670.584312,36.000000,0.000000,4220.512695,4975.384766,4157.948730,4239.487305,4231.794922,0.000000,3.000000,73.000000,,,,0.000000,4.000000,1.000000,4.000000,4.000000,4.000000,75.000000,,,,,,,,18.000000,0.000000,0.726656,0.017578,0.635254,-0.260986,0.941909,0.301762,-0.197757,3.023096,-4.115495,11.118218
1618540670.592127,37.000000,0.000000,4222.051270,4960.000000,4174.871582,4235.897461,4230.769043,0.000000,3.000000,73.000000,,,,0.000000,4.000000,1.000000,4.000000,4.000000,4.000000,75.000000,,,,,,,,,,,,,,,,,,,
1618540670.599942,38.000000,0.000000,4230.769043,4982.563965,4185.128418,4225.128418,4233.333496,0.000000,3.000000,73.000000,,,,0.000000,4.000000,1.000000,4.000000,4.000000,4.000000,75.000000,,,,,,,,19.000000,0.000000,0.726651,0.017822,0.635254,-0.260986,0.938003,0.295415,-0.194339,6.369524,-5.318960,11.202703
1618540670.607658,39.000000,0.000000,4232.820313,4992.820313,4178.461426,4212.307617,4234.871582,0.000000,3.000000,73.000000,,,,0.000000,4.000000,1.000000,4.000000,4.000000,4.000000,75.000000,,,,,,,,,,,,,,,,,,,
1618540670.615474,40.000000,0.000000,4224.615234,4958.461426,4170.256348,4213.333496,4228.205078,0.000000,3.000000,73.000000,,,,0.000000,4.000000,1.000000,4.000000,4.000000,4.000000,75.000000,,,,,,,,20.000000,0.000000,0.726645,0.018066,0.635254,-0.260986,0.946792,0.304204,-0.196292,6.510171,-6.282448,11.398372
1618540670.623289,41.000000,0.000000,4223.589844,4952.307617,4168.205078,4216.410156,4225.641113,0.000000,3.000000,73.000000,,,,0.000000,4.000000,1.000000,4.000000,4.000000,4.000000,75.000000,,,,,,,,,,,,,,,,,,,
1618540670.631105,42.000000,0.000000,4235.897461,4996.410156,4174.358887,4202.563965,4238.461426,0.000000,3.000000,73.000000,,,,0.000000,4.000000,1.000000,4.000000,4.000000,4.000000,75.000000,,,,,,,,21.000000,0.000000,0.726939,0.018311,0.635010,-0.260742,0.939956,0.322271,-0.196780,6.756384,-3.381219,11.454842
1618540670.638921,43.000000,0.000000,4236.922852,4964.615234,4177.436035,4185.128418,4235.384766,0.000000,3.000000,73.000000,,,,0.000000,4.000000,1.000000,4.000000,4.000000,4.000000,75.000000,,,,,,,,,,,,,,,,,,,
1618540670.646736,44.000000,0.000000,4225.128418,4938.974121,4173.333496,4181.538574,4221.538574,0.000000,3.000000,73.000000,,,,0.000000,4.000000,1.000000,4.000000,4.000000,4.000000,75.000000,,,,,,,,22.000000,0.000000,0.726939,0.018311,0.635010,-0.260742,0.944350,0.311040,-0.191897,6.020931,-0.590668,11.445849
1618540670.654552,45.000000,0.000000,4227.179688,5002.563965,4176.922852,4188.717773,4220.000000,0.000000,3.000000,73.000000,,,,0.000000,4.000000,1.000000,4.000000,4.000000,4.000000,75.000000,,,,,,,,,,,,,,,,,,,
1618540670.662367,46.000000,0.000000,4232.307617,4988.717773,4186.666504,4186.153809,4216.410156,0.000000,3.000000,73.000000,,,,0.000000,4.000000,1.000000,4.000000,4.000000,4.000000,75.000000,,,,,,,,23.000000,0.000000,0.726933,0.018555,0.635010,-0.260742,0.942397,0.315435,-0.198734,6.076807,-1.967170,11.557387
1618540670.670183,47.000000,0.000000,4219.487305,4940.000000,4184.615234,4181.025879,4204.615234,0.000000,3.000000,73.000000,,,,0.000000,4.000000,1.000000,4.000000,4.000000,4.000000,75.000000,,,,,,,,,,,,,,,,,,,
1618540670.677898,48.000000,0.000000,4209.230957,5000.512695,4178.461426,4188.717773,4198.461426,0.000000,3.000000,73.000000,,,,0.000000,4.000000,1.000000,4.000000,4.000000,4.000000,75.000000,,,,,,,,24.000000,0.000000,0.727059,0.018555,0.634766,-0.260986,0.941421,0.307622,-0.191897,2.538173,0.622162,11.538140
1618540670.685714,49.000000,0.000000,4211.794922,4985.128418,4181.538574,4185.641113,4197.436035,0.000000,3.000000,73.000000,,,,0.000000,4.000000,1.000000,4.000000,4.000000,4.000000,75.000000,,,,,,,,,,,,,,,,,,,
1618540670.693529,50.000000,0.000000,4207.692383,4878.974121,4190.256348,4171.794922,4190.256348,0.000000,3.000000,73.000000,,,,0.000000,4.000000,1.000000,4.000000,4.000000,4.000000,75.000000,,,,,,,,25.000000,0.000000,0.727059,0.018555,0.634766,-0.260986,0.936049,0.309575,-0.199710,-3.632521,4.990104,11.505228
1618540670.701345,51.000000,0.000000,4205.641113,4942.051270,4198.461426,4173.333496,4189.230957,0.000000,3.000000,73.000000,,,,0.000000,4.000000,1.000000,4.000000,4.000000,4.000000,75.000000,,,,,,,,,,,,,,,,,,,
1618540670.709160,52.000000,0.000000,4213.846191,5030.256348,4207.692383,4181.025879,4198.974121,0.000000,3.000000,73.000000,,,,0.000000,4.000000,1.000000,4.000000,4.000000,4.000000,75.000000,,,,,,,,26.000000,0.000000,0.727184,0.018555,0.634521,-0.261230,0.951186,0.299321,-0.200687,-2.491669,2.935894,11.431382
1618540670.716975,53.000000,0.000000,4221.025879,4950.256348,4211.794922,4177.948730,4206.666504,0.000000,3.000000,73.000000,,,,0.000000,4.000000,1.000000,4.000000,4.000000,4.000000,75.000000,,,,,,,,,,,,,,,,,,,
1618540670.724791,54.000000,0.000000,4225.128418,4874.358887,4204.615234,4168.205078,4207.692383,0.000000,3.000000,73.000000,,,,0.000000,4.000000,1.000000,4.000000,4.000000,4.000000,75.000000,,,,,,,,27.000000,0.000000,0.726971,0.018555,0.634766,-0.261230,0.949233,0.311040,-0.189944,-1.524718,1.326366,11.305105
1618540670.732506,55.000000,0.000000,4237.436035,4915.384766,4195.384766,4165.641113,4217.948730,0.000000,3.000000,73.000000,,,,0.000000,4.000000,1.000000,4.000000,4.000000,4.000000,75.000000,,,,,,,,,,,,,,,,,,,
1618540670.740321,56.000000,0.000000,4249.230957,4994.871582,4195.384766,4172.307617,4238.461426,0.000000,3.000000,73.000000,,,,0.000000,4.000000,1.000000,4.000000,4.000000,4.000000,75.000000,,,,,,,,28.000000,0.000000,0.727178,0.018799,0.634521,-0.261230,0.940444,0.310063,-0.198734,-0.534831,-0.241839,11.370902
1618540670.748137,57.000000,0.000000,4243.077148,4982.051270,4189.230957,4172.307617,4242.051270,0.000000,3.000000,73.000000,,,,0.000000,4.000000,1.000000,4.000000,4.000000,4.000000,75.000000,,,,,,,,,,,,,,,,,,,
1618540670.755952,58.000000,0.000000,4244.615234,4907.692383,4180.000000,4169.743652,4235.384766,0.000000,3.000000,73.000000,,,,0.000000,4.000000,1.000000,4.000000,4.000000,4.000000,75.000000,,,,,,,,29.000000,0.000000,0.727090,0.018799,0.634521,-0.261475,0.941421,0.303716,-0.195804,0.116806,2.055329,11.370304
1618540670.763768,59.000000,0.000000,4255.897461,4927.692383,4183.589844,4183.589844,4239.487305,0.000000,3.000000,73.000000,,,,0.000000,4.000000,1.000000,4.000000,4.000000,4.000000,75.000000,,,,,,,,,,,,,,,,,,,
1618540670.771583,60.000000,0.000000,4248.717773,5014.358887,4189.230957,4182.563965,4242.563965,0.000000,3.000000,73.000000,,,,0.000000,4.000000,1.000000,4.000000,4.000000,4.000000,75.000000,,,,,,,,30.000000,0.000000,0.727090,0.018799,0.634521,-0.261475,0.946792,0.303227,-0.199222,3.694047,0.294596,11.369765
1618540670.779298,61.000000,0.000000,4234.358887,5011.282227,4185.641113,4159.487305,4232.307617,0.000000,3.000000,73.000000,,,,0.000000,4.000000,1.000000,4.000000,4.000000,4.000000,75.000000,,,,,,,,,,,,,,,,,,,
1618540670.787113,62.000000,0.000000,4236.922852,4957.948730,4183.077148,4161.025879,4224.615234,0.000000,3.000000,73.000000,,,,0.000000,4.000000,1.000000,4.000000,4.000000,4.000000,75.000000,,,,,,,,31.000000,0.000000,0.727090,0.018799,0.634521,-0.261475,0.926284,0.316411,-0.193362,4.102242,2.538121,11.429096
1618540670.794829,63.000000,0.000000,4240.512695,4962.563965,4184.615234,4183.077148,4232.307617,0.000000,3.000000,73.000000,,,,0.000000,4.000000,1.000000,4.000000,4.000000,4.000000,75.000000,,,,,,,,,,,,,,,,,,,
1618540670.802645,64.000000,0.000000,4237.948730,5005.641113,4188.205078,4190.256348,4238.974121,450.000000,3.000000,73.000000,,,,0.000000,4.000000,1.000000,4.000000,4.000000,4.000000,75.000000,,,,,,,,32.000000,0.000000,0.727090,0.018799,0.634521,-0.261475,0.946303,0.311040,-0.196292,4.409802,0.788924,11.303048
1618540670.810460,65.000000,0.000000,4246.666504,4994.358887,4195.384766,4187.692383,4240.000000,450.000000,3.000000,73.000000,,,,0.000000,4.000000,1.000000,4.000000,4.000000,4.000000,75.000000,,,,,,,,,,,,,,,,,,,
1618540670.818276,66.000000,0.000000,4257.436035,4919.487305,4202.051270,4186.666504,4247.692383,16204.000000,3.000000,73.000000,,,,0.000000,4.000000,1.000000,4.000000,4.000000,4.000000,75.000000,,,,,,,,33.000000,0.000000,0.727178,0.018799,0.634521,-0.261230,0.944839,0.311040,-0.209964,4.925868,-0.605906,11.249419
1618540670.826091,67.000000,0.000000,4258.974121,4945.128418,4202.051270,4188.205078,4255.897461,450.000000,3.000000,73.000000,,,,0.000000,4.000000,1.000000,4.000000,4.000000,4.000000,75.000000,,,,,,,,,,,,,,,,,,,
1618540670.833907,68.000000,0.000000,4258.974121,4998.461426,4192.307617,4181.538574,4255.897461,131.000000,3.000000,73.000000,,,,0.000000,4.000000,1.000000,4.000000,4.000000,4.000000,75.000000,,,,,,,,34.000000,0.000000,0.727178,0.018799,0.634521,-0.261230,0.943374,0.314458,-0.192874,8.141834,-2.040700,11.201154
1618540670.841723,69.000000,0.000000,4256.410156,4940.000000,4182.563965,4163.589844,4251.794922,450.000000,3.000000,73.000000,,,,0.000000,4.000000,1.000000,4.000000,4.000000,4.000000,75.000000,,,,,,,,,,,,,,,,,,,
1618540670.849538,70.000000,0.000000,4248.205078,4925.128418,4181.025879,4156.410156,4244.615234,16160.000000,3.000000,73.000000,,,,0.000000,4.000000,1.000000,4.000000,4.000000,4.000000,75.000000,,,,,,,,35.000000,0.000000,0.727053,0.018799,0.634766,-0.260986,0.942885,0.312016,-0.204593,10.976388,0.436354,11.157715
1618540670.857354,71.000000,0.000000,4240.512695,4967.179688,4179.487305,4163.589844,4240.000000,450.000000,3.000000,73.000000,,,,0.000000,4.000000,1.000000,4.000000,4.000000,4.000000,75.000000,,,,,,,,,,,,,,,,,,,
1618540670.865069,72.000000,0.000000,4242.051270,4967.179688,4179.487305,4163.077148,4249.230957,450.000000,3.000000,73.000000,,,,0.000000,4.000000,1.000000,4.000000,4.000000,4.000000,75.000000,,,,,,,,36.000000,0.000000,0.727053,0.018799,0.634766,-0.260986,0.943374,0.306157,-0.196292,10.775979,-1.222296,11.238251
1618540670.872885,73.000000,0.000000,4246.153809,4991.794922,4182.563965,4150.769043,4257.436035,300.000000,3.000000,73.000000,,,,0.000000,4.000000,1.000000,4.000000,4.000000,4.000000,75.000000,,,,,,,,,,,,,,,,,,,
1618540670.880701,74.000000,0.000000,4250.256348,4997.436035,4184.102539,4156.922852,4256.410156,450.000000,3.000000,73.000000,,,,0.000000,4.000000,1.000000,4.000000,4.000000,4.000000,75.000000,,,,,,,,37.000000,0.000000,0.727053,0.018799,0.634766,-0.260986,0.947768,0.304692,-0.196780,10.595612,1.113102,11.191103
1618540670.888516,75.000000,0.000000,4255.897461,4928.717773,4187.179688,4176.410156,4265.128418,16212.000000,3.000000,73.000000,,,,0.000000,4.000000,1.000000,4.000000,4.000000,4.000000,75.000000,,,,,,,,,,,,,,,,,,,
1618540670.896332,76.000000,0.000000,4255.897461,4943.077148,4187.692383,4173.333496,4272.307617,450.000000,3.000000,73.000000,,,,0.000000,4.000000,1.000000,4.000000,4.000000,4.000000,75.000000,,,,,,,,38.000000,0.000000,0.727053,0.018799,0.634766,-0.260986,0.942885,0.312016,-0.204593,13.304419,-0.553408,11.148669
1618540670.904147,77.000000,0.000000,4251.794922,4982.563965,4177.948730,4157.948730,4262.563965,450.000000,3.000000,73.000000,,,,0.000000,4.000000,1.000000,4.000000,4.000000,4.000000,75.000000,,,,,,,,,,,,,,,,,,,
1618540670.911963,78.000000,0.000000,4258.974121,4964.102539,4171.282227,4160.512695,4261.025879,450.000000,3.000000,73.000000,,,,0.000000,4.000000,1.000000,4.000000,4.000000,4.000000,75.000000,,,,,,,,39.000000,0.000000,0.727053,0.018799,0.634766,-0.260986,0.947768,0.304692,-0.196780,12.871207,1.715102,11.110478
1618540670.919779,79.000000,0.000000,4271.282227,5003.589844,4177.948730,4181.025879,4273.846191,16212.000000,3.000000,73.000000,,,,0.000000,4.000000,1.000000,4.000000,4.000000,4.000000,75.000000,,,,,,,,,,,,,,,,,,,
1618540670.927494,80.000000,0.000000,4266.666504,5013.846191,4183.077148,4190.256348,4277.436035,450.000000,3.000000,73.000000,,,,0.000000,4.000000,1.000000,4.000000,4.000000,4.000000,75.000000,,,,,,,,40.000000,0.000000,0.727140,0.018799,0.634766,-0.260742,0.924331,0.291020,-0.202640,12.361687,3.577314,11.135922
1618540670.935310,81.000000,0.000000,4253.846191,4953.846191,4173.846191,4183.589844,4268.717773,450.000000,3.000000,73.000000,,,,0.000000,4.000000,1.000000,4.000000,4.000000,4.000000,75.000000,,,,,,,,,,,,,,,,,,,
1618540670.943126,82.000000,0.000000,4256.922852,4950.256348,4167.179688,4173.846191,4268.717773,450.000000,3.000000,73.000000,,,,0.000000,4.000000,1.000000,4.000000,4.000000,4.000000,75.000000,,,,,,,,41.000000,0.000000,0.727134,0.019043,0.634766,-0.260742,0.937026,0.309087,-0.192874,11.962933,1.843829,11.158822
1618540670.950941,83.000000,0.000000,4268.205078,4973.333496,4173.333496,4170.769043,4276.922852,16212.000000,3.000000,73.000000,,,,0.000000,4.000000,1.000000,4.000000,4.000000,4.000000,75.000000,,,,,,,,,,,,,,,,,,,
1618540670.958757,84.000000,0.000000,4266.153809,4936.922852,4182.051270,4174.358887,4270.769043,450.000000,3.000000,73.000000,,,,0.000000,4.000000,1.000000,4.000000,4.000000,4.000000,75.000000,,,,,,,,42.000000,0.000000,0.727134,0.019043,0.634766,-0.260742,0.943862,0.292973,-0.198734,11.484424,3.932430,11.179432
1618540670.966572,85.000000,0.000000,4253.846191,4905.128418,4182.051270,4175.384766,4254.871582,450.000000,3.000000,73.000000,,,,0.000000,4.000000,1.000000,4.000000,4.000000,4.000000,75.000000,,,,,,,,,,,,,,,,,,,
1618540670.974388,86.000000,0.000000,4250.256348,4942.051270,4181.538574,4178.974121,4262.051270,450.000000,3.000000,73.000000,,,,0.000000,4.000000,1.000000,4.000000,4.000000,4.000000,75.000000,,,,,,,,43.000000,0.000000,0.727127,0.019287,0.634766,-0.260742,0.946792,0.293950,-0.200198,13.207119,1.983988,11.138165
1618540670.982204,87.000000,0.000000,4260.512695,5000.000000,4187.179688,4184.615234,4281.538574,16212.000000,3.000000,73.000000,,,,0.000000,4.000000,1.000000,4.000000,4.000000,4.000000,75.000000,,,,,,,,,,,,,,,,,,,
1618540670.990019,88.000000,0.000000,4275.384766,4990.769043,4194.358887,4185.641113,4282.563965,450.000000,3.000000,73.000000,,,,0.000000,4.000000,1.000000,4.000000,4.000000,4.000000,75.000000,1.000000,75.000000,4.000000,1.000000,4.000000,4.000000,4.000000,44.000000,0.000000,0.727121,0.019531,0.634766,-0.260742,0.942397,0.315923,-0.195804,15.594960,0.230389,11.160841
1618540670.997835,89.000000,0.000000,4277.436035,4925.641113,4197.948730,4188.205078,4280.000000,450.000000,3.000000,73.000000,,,,0.000000,4.000000,1.000000,4.000000,4.000000,4.000000,75.000000,,,,,,,,,,,,,,,,,,,
1618540671.005550,90.000000,0.000000,4271.282227,4937.436035,4197.436035,4192.307617,4285.128418,450.000000,3.000000,73.000000,,,,0.000000,4.000000,1.000000,4.000000,4.000000,4.000000,75.000000,,,,,,,,45.000000,0.000000,0.727121,0.019531,0.634766,-0.260742,0.933120,0.301762,-0.197269,14.992510,-1.347849,11.300879
1618540671.013366,91.000000,0.000000,4274.871582,4993.846191,4198.461426,4193.333496,4284.615234,16212.000000,3.000000,73.000000,,,,0.000000,4.000000,1.000000,4.000000,4.000000,4.000000,75.000000,,,,,,,,,,,,,,,,,,,
1618540671.021181,92.000000,0.000000,4287.179688,4986.666504,4202.051270,4187.179688,4284.615234,450.000000,3.000000,73.000000,,,,0.000000,4.000000,1.000000,4.000000,4.000000,4.000000,75.000000,,,,,,,,46.000000,0.000000,0.727121,0.019531,0.634766,-0.260742,0.938979,0.315923,-0.193851,14.270859,-2.828079,11.367099
1618540671.028996,93.000000,0.000000,4288.717773,4956.410156,4203.589844,4188.717773,4293.333496,450.000000,3.000000,73.000000,,,,0.000000,4.000000,1.000000,4.000000,4.000000,4.000000,75.000000,,,,,,,,,,,,,,,,,,,
1618540671.036812,94.000000,0.000000,4279.487305,4956.922852,4200.000000,4200.512695,4292.307617,450.000000,3.000000,73.000000,,,,0.000000,4.000000,1.000000,4.000000,4.000000,4.000000,75.000000,,,,,,,,47.000000,0.000000,0.727033,0.019531,0.634766,-0.260986,0.938003,0.312993,-0.194339,9.853004,-0.212472,11.366880
1618540671.044627,95.000000,0.000000,4275.384766,4959.487305,4197.436035,4212.307617,4285.128418,16212.000000,3.000000,73.000000,,,,0.000000,4.000000,1.000000,4.000000,4.000000,4.000000,75.000000,,,,,,,,,,,,,,,,,,,
1618540671.052342,96.000000,0.000000,4276.922852,4949.743652,4201.538574,4221.025879,4290.769043,450.000000,3.000000,73.000000,,,,0.000000,4.000000,1.000000,4.000000,4.000000,4.000000,75.000000,,,,,,,,48.000000,0.000000,0.727033,0.019531,0.634766,-0.260986,0.948745,0.299321,-0.196292,9.525673,-1.626794,11.306870
1618540671.060158,97.000000,0.000000,4275.384766,4957.436035,4202.563965,4216.922852,4293.846191,450.000000,3.000000,73.000000,,,,0.000000,4.000000,1.000000,4.000000,4.000000,4.000000,75.000000,,,,,,,,,,,,,,,,,,,
1618540671.067973,98.000000,0.000000,4268.205078,4910.769043,4193.333496,4200.512695,4281.538574,450.000000,3.000000,73.000000,,,,0.000000,4.000000,1.000000,4.000000,4.000000,4.000000,75.000000,,,,,,,,49.000000,0.000000,0.727033,0.019531,0.634766,-0.260986,0.949722,0.312016,-0.195804,5.701968,0.868685,11.252859
1618540671.075789,99.000000,0.000000,4261.025879,4881.538574,4186.666504,4195.897461,4268.717773,16212.000000,3.000000,73.000000,,,,0.000000,4.000000,1.000000,4.000000,4.000000,4.000000,75.000000,,,,,,,,,,,,,,,,,,,
1618540671.083604,100.000000,0.000000,4263.589844,4965.641113,4192.820313,4208.205078,4272.307617,450.000000,3.000000,73.000000,,,,0.000000,4.000000,1.000000,4.000000,4.000000,4.000000,75.000000,,,,,,,,50.000000,0.000000,0.727033,0.019531,0.634766,-0.260986,0.953628,0.312505,-0.193851,5.909371,-0.833198,11.323880
1618540671.091419,101.000000,0.000000,4272.820313,4983.077148,4203.077148,4205.641113,4282.563965,450.000000,3.000000,73.000000,,,,0.000000,4.000000,1.000000,4.000000,4.000000,4.000000,75.000000,,,,,,,,,,,,,,,,,,,
1618540671.099135,102.000000,0.000000,4269.230957,4924.102539,4201.538574,4192.307617,4280.000000,450.000000,3.000000,73.000000,,,,0.000000,4.000000,1.000000,4.000000,4.000000,4.000000,75.000000,,,,,,,,51.000000,0.000000,0.727033,0.019531,0.634766,-0.260986,0.935561,0.305669,-0.201663,5.258619,-2.185447,11.387799
1618540671.106950,103.000000,0.000000,4256.922852,4945.128418,4191.794922,4193.846191,4263.589844,16212.000000,3.000000,73.000000,,,,0.000000,4.000000,1.000000,4.000000,4.000000,4.000000,75.000000,,,,,,,,,,,,,,,,,,,
1618540671.114765,104.000000,0.000000,4252.820313,4975.384766,4188.717773,4192.307617,4253.333496,450.000000,3.000000,73.000000,,,,0.000000,4.000000,1.000000,4.000000,4.000000,4.000000,75.000000,,,,,,,,52.000000,0.000000,0.727033,0.019531,0.634766,-0.260986,0.941909,0.296880,-0.200687,4.553311,-3.462287,11.445327
1618540671.122581,105.000000,0.000000,4253.846191,4913.333496,4191.282227,4188.205078,4258.461426,450.000000,3.000000,73.000000,,,,0.000000,4.000000,1.000000,4.000000,4.000000,4.000000,75.000000,,,,,,,,,,,,,,,,,,,
1618540671.130297,106.000000,0.000000,4251.282227,4897.948730,4193.846191,4197.436035,4261.025879,450.000000,3.000000,73.000000,,,,0.000000,4.000000,1.000000,4.000000,4.000000,4.000000,75.000000,,,,,,,,53.000000,0.000000,0.727033,0.019531,0.634766,-0.260986,0.939956,0.302251,-0.189456,7.686902,-4.671257,11.437286
1618540671.138112,107.000000,0.000000,4245.641113,4992.307617,4194.358887,4200.000000,4255.897461,16212.000000,3.000000,73.000000,,,,0.000000,4.000000,1.000000,4.000000,4.000000,4.000000,75.000000,,,,,,,,,,,,,,,,,,,
1618540671.145928,108.000000,0.000000,4239.487305,5022.051270,4188.205078,4190.256348,4251.794922,450.000000,3.000000,73.000000,,,,0.000000,4.000000,1.000000,4.000000,4.000000,4.000000,75.000000,,,,,,,,54.000000,0.000000,0.727121,0.019531,0.634766,-0.260742,0.943374,0.303227,-0.187503,7.695811,-5.699516,11.430050
1618540671.153743,109.000000,0.000000,4237.436035,4941.538574,4182.563965,4188.717773,4251.282227,450.000000,3.000000,73.000000,,,,0.000000,4.000000,1.000000,4.000000,4.000000,4.000000,75.000000,,,,,,,,,,,,,,,,,,,
1618540671.161559,110.000000,0.000000,4246.153809,4905.128418,4187.692383,4201.025879,4259.487305,450.000000,3.000000,73.000000,,,,0.000000,4.000000,1.000000,4.000000,4.000000,4.000000,75.000000,,,,,,,,55.000000,0.000000,0.727121,0.019531,0.634766,-0.260742,0.941421,0.303227,-0.190921,7.584199,-6.565133,11.423536
1618540671.169375,111.000000,0.000000,4251.794922,4977.436035,4194.871582,4207.179688,4269.230957,16212.000000,3.000000,73.000000,,,,0.000000,4.000000,1.000000,4.000000,4.000000,4.000000,75.000000,,,,,,,,,,,,,,,,,,,
1618540671.177190,112.000000,0.000000,4250.256348,5002.051270,4197.948730,4203.077148,4271.794922,450.000000,3.000000,73.000000,,,,0.000000,4.000000,1.000000,4.000000,4.000000,4.000000,75.000000,,,,,,,,56.000000,0.000000,0.727121,0.019531,0.634766,-0.260742,0.950698,0.310063,-0.195315,3.894826,-3.635636,11.357860
1618540671.185006,113.000000,0.000000,4248.205078,4920.512695,4200.000000,4207.692383,4270.769043,450.000000,3.000000,73.000000,,,,0.000000,4.000000,1.000000,4.000000,4.000000,4.000000,75.000000,,,,,,,,,,,,,,,,,,,
1618540671.192821,114.000000,0.000000,4245.128418,4901.538574,4198.461426,4219.487305,4264.102539,450.000000,3.000000,73.000000,,,,0.000000,4.000000,1.000000,4.000000,4.000000,4.000000,75.000000,,,,,,,,57.000000,0.000000,0.727127,0.019287,0.634766,-0.260742,0.938491,0.292973,-0.197757,4.282943,-4.827272,11.358565
1618540671.200537,115.000000,0.000000,4247.692383,4984.615234,4194.871582,4214.871582,4255.897461,16212.000000,3.000000,73.000000,,,,0.000000,4.000000,1.000000,4.000000,4.000000,4.000000,75.000000,,,,,,,,,,,,,,,,,,,
1618540671.208353,116.000000,0.000000,4247.692383,5003.589844,4183.077148,4195.384766,4255.897461,450.000000,3.000000,73.000000,,,,0.000000,4.000000,1.000000,4.000000,4.000000,4.000000,75.000000,,,,,,,,58.000000,0.000000,0.727002,0.019287,0.635010,-0.260498,0.935561,0.309087,-0.183108,4.512618,-5.780113,11.359200
1618540671.216168,117.000000,0.000000,4240.512695,4933.846191,4170.256348,4188.205078,4255.897461,450.000000,3.000000,73.000000,,,,0.000000,4.000000,1.000000,4.000000,4.000000,4.000000,75.000000,,,,,,,,,,,,,,,,,,,
1618540671.223984,118.000000,0.000000,4245.128418,4931.282227,4178.461426,4197.948730,4256.410156,450.000000,3.000000,73.000000,,,,0.000000,4.000000,1.000000,4.000000,4.000000,4.000000,75.000000,,,,,,,,59.000000,0.000000,0.727002,0.019287,0.635010,-0.260498,0.938491,0.312993,-0.198734,3.104310,-6.697486,11.180326
1618540671.231799,119.000000,0.000000,4267.179688,5005.128418,4196.410156,4210.769043,4272.820313,16212.000000,3.000000,73.000000,,,,0.000000,4.000000,1.000000,4.000000,4.000000,4.000000,75.000000,,,,,,,,,,,,,,,,,,,
1618540671.239615,120.000000,0.000000,4278.974121,4995.384766,4198.974121,4221.538574,4286.666504,450.000000,3.000000,73.000000,,,,0.000000,4.000000,1.000000,4.000000,4.000000,4.000000,75.000000,,,,,,,,60.000000,0.000000,0.727008,0.019043,0.635010,-0.260498,0.939467,0.305180,-0.194827,2.614433,-7.463306,11.138970
1618540671.247431,121.000000,0.000000,4275.897461,4912.307617,4193.333496,4215.897461,4281.025879,450.000000,3.000000,73.000000,,,,0.000000,4.000000,1.000000,4.000000,4.000000,4.000000,75.000000,,,,,,,,,,,,,,,,,,,
1618540671.255246,122.000000,0.000000,4276.410156,4917.948730,4195.897461,4209.743652,4272.307617,450.000000,3.000000,73.000000,,,,0.000000,4.000000,1.000000,4.000000,4.000000,4.000000,75.000000,,,,,,,,61.000000,0.000000,0.727014,0.018799,0.635010,-0.260498,0.934585,0.295903,-0.190433,5.224127,-8.152545,11.161566
1618540671.263062,123.000000,0.000000,4276.410156,4947.692383,4203.077148,4223.589844,4270.769043,16212.000000,3.000000,73.000000,,,,0.000000,4.000000,1.000000,4.000000,4.000000,4.000000,75.000000,,,,,,,,,,,,,,,,,,,
1618540671.270877,124.000000,0.000000,4268.205078,4937.436035,4202.051270,4228.717773,4269.743652,450.000000,3.000000,73.000000,,,,0.000000,4.000000,1.000000,4.000000,4.000000,4.000000,75.000000,,,,,,,,62.000000,0.000000,0.727014,0.018799,0.635010,-0.260498,0.942885,0.305669,-0.204105,1.651131,-5.183937,11.062270
1618540671.278593,125.000000,0.000000,4263.589844,4935.384766,4193.846191,4213.846191,4267.179688,450.000000,3.000000,73.000000,,,,0.000000,4.000000,2.000000,4.000000,4.000000,4.000000,83.333336,,,,,,,,,,,,,,,,,,,
1618540671.286409,126.000000,0.000000,4271.794922,4904.615234,4190.256348,4212.820313,4269.230957,450.000000,3.000000,73.000000,,,,0.000000,4.000000,2.000000,4.000000,4.000000,4.000000,83.333336,,,,,,,,63.000000,0.000000,0.727008,0.019043,0.635010,-0.260498,0.939467,0.305180,-0.194827,1.306572,-6.101112,11.032720
1618540671.294224,127.000000,0.000000,4280.512695,4906.153809,4189.743652,4226.666504,4273.846191,238.000000,3.000000,73.000000,,,,0.000000,4.000000,2.000000,4.000000,4.000000,4.000000,83.333336,,,,,,,,,,,,,,,,,,,
1618540671.302040,0.000000,0.000000,4278.974121,4988.717773,4190.769043,4227.179688,4271.282227,450.000000,3.000000,73.000000,,,,0.000000,4.000000,2.000000,4.000000,4.000000,4.000000,83.333336,,,,,,,,0.000000,0.000000,0.727014,0.018799,0.635010,-0.260498,0.953140,0.310063,-0.193362,2.073145,-3.098386,11.006124
1618540671.309856,1.000000,0.000000,4280.000000,4995.897461,4201.025879,4227.179688,4268.205078,450.000000,3.000000,73.000000,,,,0.000000,4.000000,2.000000,4.000000,4.000000,4.000000,83.333336,,,,,,,,,,,,,,,,,,,
1618540671.317671,2.000000,0.000000,4287.692383,4908.717773,4213.333496,4237.436035,4270.256348,16198.000000,3.000000,73.000000,,,,0.000000,4.000000,2.000000,4.000000,4.000000,4.000000,83.333336,,,,,,,,1.000000,0.000000,0.727014,0.018799,0.635010,-0.260498,0.947768,0.308110,-0.207523,2.763061,-0.575379,10.982188
1618540671.325487,3.000000,0.000000,4286.666504,4894.871582,4213.846191,4231.794922,4268.205078,450.000000,3.000000,73.000000,,,,0.000000,4.000000,2.000000,4.000000,4.000000,4.000000,83.333336,,,,,,,,,,,,,,,,,,,
1618540671.333302,4.000000,0.000000,4283.077148,4929.230957,4215.384766,4221.538574,4264.615234,258.000000,3.000000,73.000000,,,,0.000000,4.000000,2.000000,4.000000,4.000000,4.000000,83.333336,,,,,,,,2.000000,0.000000,0.727014,0.018799,0.635010,-0.260498,0.956558,0.310063,-0.199710,3.443801,-2.132856,11.020462
1618540671.341118,5.000000,0.000000,4284.102539,4900.512695,4217.948730,4220.000000,4268.205078,450.000000,3.000000,73.000000,,,,0.000000,4.000000,2.000000,4.000000,4.000000,4.000000,83.333336,,,,,,,,,,,,,,,,,,,
1618540671.348834,6.000000,0.000000,4281.538574,4874.358887,4214.358887,4207.179688,4270.256348,16104.000000,3.000000,73.000000,,,,0.000000,4.000000,2.000000,4.000000,4.000000,4.000000,83.333336,,,,,,,,3.000000,0.000000,0.727008,0.019043,0.635010,-0.260498,0.936538,0.302739,-0.199710,0.108653,0.413229,11.054908
1618540671.356649,7.000000,0.000000,4274.871582,4901.538574,4211.794922,4194.358887,4263.077148,450.000000,3.000000,73.000000,,,,0.000000,4.000000,2.000000,4.000000,4.000000,4.000000,83.333336,,,,,,,,,,,,,,,,,,,
1618540671.364465,8.000000,0.000000,4273.333496,4962.563965,4215.384766,4201.538574,4258.461426,450.000000,3.000000,73.000000,,,,0.000000,4.000000,2.000000,4.000000,4.000000,4.000000,83.333336,,,,,,,,4.000000,0.000000,0.726795,0.019043,0.635254,-0.260498,0.930190,0.313970,-0.194827,-0.021843,-1.063663,11.205540
1618540671.372280,9.000000,0.000000,4277.948730,4960.512695,4219.487305,4214.358887,4264.102539,16076.000000,3.000000,73.000000,,,,0.000000,4.000000,2.000000,4.000000,4.000000,4.000000,83.333336,,,,,,,,,,,,,,,,,,,
1618540671.380096,10.000000,0.000000,4287.179688,4878.461426,4224.102539,4218.461426,4271.282227,450.000000,3.000000,73.000000,,,,0.000000,4.000000,2.000000,4.000000,4.000000,4.000000,83.333336,,,,,,,,5.000000,0.000000,0.727008,0.019043,0.635010,-0.260498,0.947768,0.307622,-0.192874,0.937387,-2.512496,11.281293
1618540671.387912,11.000000,0.000000,4290.256348,4872.307617,4227.692383,4209.230957,4266.666504,16237.000000,3.000000,73.000000,,,,0.000000,4.000000,2.000000,4.000000,4.000000,4.000000,83.333336,,,,,,,,,,,,,,,,,,,
1618540671.395727,12.000000,0.000000,4284.615234,4951.282227,4223.077148,4196.922852,4257.948730,450.000000,3.000000,73.000000,,,,0.000000,4.000000,2.000000,4.000000,4.000000,4.000000,83.333336,,,,,,,,6.000000,0.000000,0.726795,0.019043,0.635254,-0.260498,0.933120,0.314458,-0.182132,0.664202,-0.107893,11.349471
1618540671.403543,13.000000,0.000000,4276.922852,4947.179688,4211.794922,4191.794922,4252.820313,450.000000,3.000000,73.000000,,,,0.000000,4.000000,2.000000,4.000000,4.000000,4.000000,83.333336,,,,,,,,,,,,,,,,,,,
1618540671.411358,14.000000,0.000000,4274.358887,4877.948730,4201.538574,4191.282227,4244.102539,450.000000,3.000000,73.000000,,,,0.000000,4.000000,2.000000,4.000000,4.000000,4.000000,83.333336,,,,,,,,7.000000,0.000000,0.726882,0.019043,0.635254,-0.260254,0.943374,0.306645,-0.201175,1.375381,-1.592488,11.351016
1618540671.419074,15.000000,0.000000,4277.948730,4895.384766,4196.922852,4195.384766,4240.000000,16237.000000,3.000000,73.000000,,,,0.000000,4.000000,2.000000,4.000000,4.000000,4.000000,83.333336,,,,,,,,,,,,,,,,,,,
1618540671.426890,16.000000,0.000000,4278.974121,4976.410156,4192.307617,4193.333496,4241.025879,0.000000,3.000000,73.000000,,,,0.000000,4.000000,2.000000,4.000000,4.000000,4.000000,83.333336,,,,,,,,8.000000,0.000000,0.726882,0.019043,0.635254,-0.260254,0.941421,0.309087,-0.188968,5.006211,-2.988439,11.292591
1618540671.434705,17.000000,0.000000,4275.897461,4957.948730,4189.743652,4184.615234,4238.461426,0.000000,3.000000,73.000000,,,,0.000000,4.000000,2.000000,4.000000,4.000000,4.000000,83.333336,,,,,,,,,,,,,,,,,,,
1618540671.442521,18.000000,0.000000,4269.230957,4900.512695,4194.358887,4196.410156,4239.487305,0.000000,3.000000,73.000000,,,,0.000000,4.000000,2.000000,4.000000,4.000000,4.000000,83.333336,,,,,,,,9.000000,0.000000,0.726882,0.019043,0.635254,-0.260254,0.946303,0.298344,-0.202152,5.283190,-4.244794,11.240008
1618540671.450337,19.000000,0.000000,4260.512695,4948.205078,4187.692383,4201.538574,4240.000000,0.000000,3.000000,73.000000,,,,0.000000,4.000000,2.000000,4.000000,4.000000,4.000000,83.333336,,,,,,,,,,,,,,,,,,,
1618540671.458152,20.000000,0.000000,4258.461426,5006.153809,4174.871582,4174.871582,4235.384766,0.000000,3.000000,73.000000,,,,0.000000,4.000000,2.000000,4.000000,4.000000,4.000000,83.333336,,,,,,,,10.000000,0.000000,0.726882,0.019043,0.635254,-0.260254,0.949722,0.307622,-0.185061,5.771732,-5.315699,11.252500
1618540671.465968,21.000000,0.000000,4264.615234,4975.897461,4177.436035,4172.307617,4238.461426,0.000000,3.000000,73.000000,,,,0.000000,4.000000,2.000000,4.000000,4.000000,4.000000,83.333336,,,,,,,,,,,,,,,,,,,
1618540671.473783,22.000000,0.000000,4264.102539,4912.820313,4180.000000,4190.769043,4242.563965,0.000000,3.000000,73.000000,,,,0.000000,4.000000,2.000000,4.000000,4.000000,4.000000,83.333336,,,,,,,,11.000000,0.000000,0.726889,0.018799,0.635254,-0.260254,0.952163,0.312505,-0.199710,5.852528,-2.271884,11.203926
1618540671.481599,23.000000,0.000000,4262.051270,4911.282227,4172.307617,4181.025879,4234.871582,0.000000,3.000000,73.000000,,,,0.000000,4.000000,2.000000,4.000000,4.000000,4.000000,83.333336,,,,,,,,,,,,,,,,,,,
1618540671.489415,24.000000,0.000000,4270.256348,4973.846191,4178.461426,4170.256348,4231.794922,0.000000,3.000000,73.000000,,,,0.000000,4.000000,2.000000,4.000000,4.000000,4.000000,83.333336,1.000000,75.000000,4.000000,1.000000,4.000000,4.000000,4.000000,12.000000,0.000000,0.726889,0.018799,0.635254,-0.260254,0.929213,0.307622,-0.190433,6.224321,0.288104,11.220025
1618540671.497130,25.000000,0.000000,4264.102539,5007.179688,4188.717773,4176.410156,4233.846191,0.000000,3.000000,73.000000,,,,0.000000,4.000000,2.000000,4.000000,4.000000,4.000000,83.333336,,,,,,,,,,,,,,,,,,,
1618540671.504946,26.000000,0.000000,4242.563965,4968.717773,4178.461426,4171.282227,4226.666504,0.000000,3.000000,73.000000,,,,0.000000,4.000000,2.000000,4.000000,4.000000,4.000000,83.333336,,,,,,,,13.000000,0.000000,0.726889,0.018799,0.635254,-0.260254,0.933608,0.308110,-0.205570,2.551305,2.592093,11.294330
1618540671.512761,27.000000,0.000000,4239.487305,4948.205078,4172.307617,4164.102539,4225.641113,0.000000,3.000000,73.000000,,,,0.000000,4.000000,2.000000,4.000000,4.000000,4.000000,83.333336,,,,,,,,,,,,,,,,,,,
1618540671.520577,28.000000,0.000000,4251.794922,4980.000000,4182.051270,4160.000000,4232.307617,0.000000,3.000000,73.000000,,,,0.000000,4.000000,2.000000,4.000000,4.000000,4.000000,83.333336,,,,,,,,14.000000,0.000000,0.726889,0.018799,0.635254,-0.260254,0.937026,0.304692,-0.197757,3.013959,0.777684,11.421020
1618540671.528393,29.000000,0.000000,4257.436035,4955.897461,4183.589844,4161.025879,4238.974121,0.000000,3.000000,73.000000,,,,0.000000,4.000000,2.000000,4.000000,4.000000,4.000000,83.333336,,,,,,,,,,,,,,,,,,,
1618540671.536208,30.000000,0.000000,4263.589844,4932.307617,4183.077148,4177.948730,4247.179688,0.000000,3.000000,73.000000,,,,0.000000,4.000000,2.000000,4.000000,4.000000,4.000000,83.333336,,,,,,,,15.000000,0.000000,0.726889,0.018799,0.635254,-0.260254,0.934096,0.317388,-0.184085,-0.278205,2.972899,11.415410
1618540671.544024,31.000000,0.000000,4275.384766,4969.743652,4191.282227,4195.897461,4247.179688,0.000000,3.000000,73.000000,,,,0.000000,4.000000,2.000000,4.000000,4.000000,4.000000,83.333336,,,,,,,,,,,,,,,,,,,
1618540671.551839,32.000000,0.000000,4278.461426,4976.922852,4198.974121,4198.974121,4242.563965,0.000000,3.000000,73.000000,,,,0.000000,4.000000,2.000000,4.000000,4.000000,4.000000,83.333336,,,,,,,,16.000000,0.000000,0.726882,0.019043,0.635254,-0.260254,0.941421,0.310552,-0.191409,3.458168,1.120410,11.410360
1618540671.559555,33.000000,0.000000,4272.820313,4929.743652,4203.077148,4190.256348,4240.000000,0.000000,3.000000,73.000000,,,,0.000000,4.000000,2.000000,4.000000,4.000000,4.000000,83.333336,,,,,,,,,,,,,,,,,,,
1618540671.567370,34.000000,0.000000,4268.717773,4927.179688,4204.615234,4179.487305,4235.384766,0.000000,3.000000,73.000000,,,,0.000000,4.000000,2.000000,4.000000,4.000000,4.000000,83.333336,,,,,,,,17.000000,0.000000,0.726756,0.019043,0.635498,-0.260010,0.943862,0.298344,-0.194339,3.830136,-0.606646,11.286186
1618540671.575186,35.000000,0.000000,4267.179688,4984.102539,4202.051270,4176.410156,4231.794922,0.000000,3.000000,73.000000,,,,0.000000,4.000000,2.000000,4.000000,4.000000,4.000000,83.333336,,,,,,,,,,,,,,,,,,,
1618540671.583001,36.000000,0.000000,4264.102539,4994.358887,4202.051270,4179.487305,4231.282227,0.000000,3.000000,73.000000,,,,0.000000,4.000000,2.000000,4.000000,4.000000,4.000000,83.333336,,,,,,,,18.000000,0.000000,0.726970,0.019043,0.635254,-0.260010,0.949233,0.313970,-0.198245,4.105091,-1.981550,11.234243
1618540671.590816,37.000000,0.000000,4268.205078,4932.820313,4202.563965,4182.051270,4235.897461,0.000000,3.000000,73.000000,,,,0.000000,4.000000,2.000000,4.000000,4.000000,4.000000,83.333336,,,,,,,,,,,,,,,,,,,
1618540671.598632,38.000000,0.000000,4283.077148,4889.743652,4197.948730,4197.436035,4248.205078,0.000000,3.000000,73.000000,,,,0.000000,4.000000,2.000000,4.000000,4.000000,4.000000,83.333336,,,,,,,,19.000000,0.000000,0.726756,0.019043,0.635498,-0.260010,0.935561,0.313481,-0.205570,4.591813,-3.278779,11.366942
1618540671.606447,39.000000,0.000000,4287.692383,4929.230957,4192.820313,4214.871582,4253.333496,0.000000,3.000000,73.000000,,,,0.000000,4.000000,2.000000,4.000000,4.000000,4.000000,83.333336,,,,,,,,,,,,,,,,,,,
1618540671.614162,40.000000,0.000000,4280.512695,4992.307617,4193.333496,4210.256348,4243.589844,0.000000,3.000000,73.000000,,,,0.000000,4.000000,2.000000,4.000000,4.000000,4.000000,83.333336,,,,,,,,20.000000,0.000000,0.726756,0.019043,0.635498,-0.260010,0.943862,0.298344,-0.194339,7.003769,-4.506101,11.366740
1618540671.621978,41.000000,0.000000,4283.077148,4968.205078,4204.102539,4199.487305,4245.128418,0.000000,3.000000,73.000000,,,,0.000000,4.000000,2.000000,4.000000,4.000000,4.000000,83.333336,,,,,,,,,,,,,,,,,,,
1618540671.629793,42.000000,0.000000,4296.410156,4896.922852,4216.410156,4203.077148,4256.922852,0.000000,3.000000,73.000000,,,,0.000000,4.000000,2.000000,4.000000,4.000000,4.000000,83.333336,,,,,,,,21.000000,0.000000,0.726756,0.019043,0.635498,-0.260010,0.935561,0.313481,-0.205570,7.200623,-5.550875,11.486189
1618540671.637609,43.000000,0.000000,4307.179688,4918.461426,4221.538574,4210.256348,4255.384766,0.000000,3.000000,73.000000,,,,0.000000,4.000000,2.000000,4.000000,4.000000,4.000000,83.333336,,,,,,,,,,,,,,,,,,,
1618540671.645424,44.000000,0.000000,4312.820313,4955.897461,4227.692383,4204.615234,4250.769043,0.000000,3.000000,73.000000,,,,0.000000,4.000000,2.000000,4.000000,4.000000,4.000000,83.333336,,,,,,,,22.000000,0.000000,0.727057,0.019043,0.635254,-0.259766,0.936049,0.308598,-0.185061,3.370161,-2.662988,11.414247
1618540671.653239,45.000000,0.000000,4311.282227,4895.897461,4233.333496,4197.436035,4258.974121,0.000000,3.000000,73.000000,,,,0.000000,4.000000,2.000000,4.000000,4.000000,4.000000,83.333336,,,,,,,,,,,,,,,,,,,
1618540671.660955,46.000000,0.000000,4308.717773,4855.384766,4237.436035,4195.897461,4269.230957,0.000000,3.000000,73.000000,,,,0.000000,4.000000,2.000000,4.000000,4.000000,4.000000,83.333336,,,,,,,,23.000000,0.000000,0.726843,0.019043,0.635498,-0.259766,0.942397,0.295903,-0.197757,3.691114,-4.011704,11.469129
1618540671.668670,47.000000,0.000000,4311.282227,4891.282227,4247.692383,4196.922852,4272.820313,0.000000,3.000000,73.000000,,,,0.000000,4.000000,2.000000,4.000000,4.000000,4.000000,83.333336,,,,,,,,,,,,,,,,,,,
1618540671.676486,48.000000,0.000000,4311.282227,4945.641113,4255.384766,4204.102539,4276.410156,0.000000,3.000000,73.000000,,,,0.000000,4.000000,2.000000,4.000000,4.000000,4.000000,83.333336,,,,,,,,24.000000,0.000000,0.726850,0.018799,0.635498,-0.259766,0.944350,0.304692,-0.199710,4.219233,-5.105918,11.578339
1618540671.684301,49.000000,0.000000,4307.179688,4968.717773,4244.615234,4209.743652,4283.077148,0.000000,3.000000,73.000000,,,,0.000000,4.000000,2.000000,4.000000,4.000000,4.000000,83.333336,,,,,,,,,,,,,,,,,,,
1618540671.692117,50.000000,0.000000,4308.205078,4891.794922,4232.307617,4200.512695,4278.974121,0.000000,3.000000,73.000000,,,,0.000000,4.000000,2.000000,4.000000,4.000000,4.000000,83.333336,,,,,,,,25.000000,0.000000,0.726937,0.018799,0.635498,-0.259521,0.938003,0.303227,-0.188968,4.574910,-5.971079,11.676627
1618540671.699933,51.000000,0.000000,4312.307617,4831.282227,4229.230957,4185.641113,4268.717773,0.000000,3.000000,73.000000,,,,0.000000,4.000000,2.000000,4.000000,4.000000,4.000000,83.333336,,,,,,,,,,,,,,,,,,,
1618540671.707748,52.000000,0.000000,4307.692383,4916.410156,4225.128418,4175.897461,4270.256348,0.000000,3.000000,73.000000,,,,0.000000,4.000000,2.000000,4.000000,4.000000,4.000000,83.333336,,,,,,,,26.000000,0.000000,0.726937,0.018799,0.635498,-0.259521,0.950210,0.293950,-0.201663,7.766156,-7.048802,11.645456
1618540671.715564,53.000000,0.000000,4304.615234,4952.307617,4224.102539,4172.820313,4274.358887,0.000000,3.000000,73.000000,,,,0.000000,4.000000,2.000000,4.000000,4.000000,4.000000,83.333336,,,,,,,,,,,,,,,,,,,
1618540671.723379,54.000000,0.000000,4308.205078,4896.410156,4219.487305,4180.000000,4265.128418,0.000000,3.000000,73.000000,,,,0.000000,4.000000,2.000000,4.000000,4.000000,4.000000,83.333336,,,,,,,,27.000000,0.000000,0.727030,0.018555,0.635498,-0.259277,0.947768,0.304204,-0.206058,7.767140,-4.011122,11.557588
1618540671.731195,55.000000,0.000000,4309.230957,4974.358887,4204.615234,4192.820313,4261.025879,0.000000,3.000000,73.000000,,,,0.000000,4.000000,2.000000,4.000000,4.000000,4.000000,83.333336,,,,,,,,,,,,,,,,,,,
1618540671.738910,56.000000,0.000000,4326.666504,5068.717773,4210.769043,4209.743652,4282.051270,0.000000,3.000000,73.000000,,,,0.000000,4.000000,2.000000,4.000000,4.000000,4.000000,83.333336,,,,,,,,28.000000,0.000000,0.726904,0.018555,0.635742,-0.259033,0.943862,0.299809,-0.203128,7.768026,-5.225025,11.598136
